FluorCam7 Kinetics Export File
-----------------------------------
[us]	[°C]	B1	A3	C3	C2	C1	D3	D2	D1	C4	C5	C6	D4	D5	D6	B5	B6	A4	A5	A6	E1	F5	E5	E6	F1	F2	E2	E3	F3	E4	F4	B2	A1	A2	B3	B4
20000	25.00	63.321	67.283	118.231	129.393	122.838	127.333	88.786	77.880	84.427	78.836	82.915	108.949	97.068	94.692	106.137	84.470	63.071	52.345	54.485	128.846	99.121	96.094	82.385	96.436	117.188	107.171	95.462	142.598	102.983	127.590	79.527	60.456	53.921	79.806	80.559
60000	25.00	58.286	61.274	119.222	126.000	114.342	120.650	86.709	81.385	87.615	74.078	85.838	115.615	97.581	94.214	110.684	81.087	52.841	51.209	41.838	128.171	98.405	91.308	82.983	90.291	116.453	101.957	96.026	135.162	107.427	119.906	74.927	60.000	52.934	76.313	76.029
100000	25.00	59.250	61.195	118.000	131.239	115.513	123.419	92.769	80.778	91.436	71.810	80.026	109.171	98.393	95.111	110.359	79.157	50.982	43.045	43.253	131.923	99.560	93.487	81.547	88.624	117.368	109.205	98.778	138.436	103.504	122.419	76.436	54.746	57.013	73.239	72.294
140000	25.00	60.080	65.735	114.427	130.222	117.205	125.709	86.427	81.350	83.188	75.784	80.043	109.222	99.060	91.009	109.145	84.017	53.832	48.364	44.535	126.291	98.474	93.846	80.034	95.829	116.410	107.786	103.709	143.316	99.744	118.188	81.982	58.789	47.895	81.463	77.686
180000	25.00	56.304	68.664	118.692	130.154	116.538	127.274	88.838	84.205	87.291	72.957	82.778	102.188	99.744	94.325	108.923	82.852	52.327	47.600	43.889	125.709	103.069	93.068	82.761	92.761	115.880	111.692	95.521	142.009	101.769	124.137	80.955	54.167	50.303	73.985	78.363
30020000	25.36	66.688	72.788	141.462	136.017	113.350	127.051	104.752	94.983	100.632	89.181	95.265	117.444	115.581	103.479	103.342	89.661	67.717	57.045	51.515	117.017	121.733	115.863	97.316	111.402	132.632	125.897	117.675	156.846	123.940	144.974	91.155	68.518	51.461	82.090	89.206
30060000	25.36	67.652	71.142	136.538	129.393	110.162	119.479	107.821	97.521	98.718	87.414	97.940	119.316	115.932	102.803	104.154	92.270	65.088	62.027	46.596	119.077	121.914	111.752	99.692	104.410	137.034	127.513	115.034	154.821	122.974	141.188	90.309	67.702	64.526	78.642	94.304
30100000	25.36	71.089	67.947	135.581	130.709	108.111	122.231	102.769	93.889	104.607	90.828	97.085	119.983	116.231	101.393	104.504	91.365	65.301	60.418	52.576	109.547	120.026	112.248	99.504	102.573	136.803	123.094	117.111	150.838	117.419	138.590	86.327	64.482	60.461	81.284	89.549
30140000	25.36	63.009	66.257	138.513	134.273	107.590	127.282	96.812	96.846	105.983	87.216	95.658	121.786	109.607	104.231	95.590	94.148	63.761	63.636	52.293	115.581	119.319	109.171	94.068	101.462	133.556	122.479	112.701	150.786	118.145	140.632	86.973	66.053	59.579	83.896	87.049
30180000	25.36	70.009	67.991	133.026	133.829	114.009	117.179	101.615	98.641	97.624	86.336	94.761	119.453	117.726	99.171	102.786	89.670	63.301	59.882	57.677	110.368	115.405	109.744	93.632	106.915	135.291	127.444	115.906	153.205	119.855	135.573	84.964	67.518	55.987	76.149	88.333
60020000	25.70	61.812	69.000	141.017	125.692	109.154	118.256	98.915	95.436	102.350	86.552	99.274	113.547	100.744	92.949	97.077	93.226	64.177	62.536	53.364	115.231	115.810	108.077	98.966	107.821	134.291	120.342	112.709	154.795	120.359	143.444	87.200	65.307	62.632	80.493	83.265
60060000	25.70	63.161	68.336	132.393	126.897	109.479	112.308	96.333	96.274	106.453	89.224	91.846	111.590	105.504	91.624	98.222	89.026	65.858	64.800	56.202	112.829	118.388	107.778	100.017	105.274	132.846	124.872	109.598	149.940	124.043	140.214	83.773	68.035	59.250	79.403	87.549
60100000	25.70	71.339	66.504	133.880	127.650	111.812	112.863	103.299	101.462	98.171	86.284	97.487	112.855	111.427	99.462	97.932	86.670	62.248	57.700	54.333	117.188	114.026	103.248	98.949	105.855	138.727	123.145	112.658	152.880	122.068	140.462	87.373	65.904	64.250	79.881	86.794
60140000	25.70	68.036	64.124	134.897	130.265	102.556	109.530	98.718	91.650	100.188	91.336	95.103	112.068	104.342	94.872	98.872	88.583	69.204	59.127	54.333	111.094	119.698	103.427	98.231	101.385	134.333	120.701	112.675	159.650	120.145	137.692	88.427	59.561	53.039	77.134	88.157
60180000	25.70	66.670	67.673	132.350	125.060	113.333	113.444	96.308	95.410	95.479	85.931	98.171	112.077	105.795	95.778	98.060	90.904	63.743	58.245	55.889	109.658	116.655	105.009	94.068	104.350	131.906	123.650	105.966	152.692	118.889	136.410	85.200	67.605	61.487	75.552	88.471
90020000	26.03	67.241	64.080	133.111	123.701	107.111	102.650	100.060	92.598	95.154	86.078	98.444	114.521	107.111	94.897	96.803	91.174	63.088	60.118	51.576	113.855	113.733	103.026	97.376	107.487	133.342	120.607	104.974	151.402	116.410	145.282	89.791	69.158	53.013	75.582	84.725
90060000	26.03	73.795	69.097	132.932	126.863	109.068	102.197	95.222	100.128	93.812	88.060	97.658	113.051	104.077	92.632	97.034	84.939	66.832	55.964	49.323	109.906	108.043	100.034	92.530	111.641	129.120	126.009	109.419	148.273	117.624	145.068	88.555	67.588	58.539	80.284	81.892
90100000	26.03	67.732	62.088	130.410	121.889	110.094	102.829	99.983	92.282	98.043	81.241	95.462	111.547	106.316	92.692	98.658	83.365	57.230	54.609	50.687	110.239	112.172	99.222	93.718	102.650	134.872	120.034	110.701	144.513	120.607	140.316	84.864	60.684	54.658	75.910	82.196
90140000	26.03	64.393	63.602	133.094	122.487	108.530	100.838	99.889	89.692	96.214	89.767	96.188	111.427	100.444	92.915	91.598	87.983	60.407	56.245	53.768	114.829	113.052	104.316	99.402	107.427	132.863	121.863	106.171	150.026	119.402	143.872	87.955	64.877	54.566	72.627	88.451
90180000	26.03	65.241	63.991	130.889	128.983	103.333	102.256	96.393	95.863	89.897	83.983	97.769	109.239	106.410	93.470	93.513	94.043	61.681	60.464	53.485	114.265	113.931	97.863	95.009	109.667	130.239	122.103	99.043	146.718	119.615	134.838	88.764	64.360	55.092	75.821	79.314
120020000	26.35	66.643	62.124	129.838	123.624	102.085	98.521	93.504	97.350	93.513	88.345	93.573	112.197	109.949	91.564	96.299	87.191	59.407	60.773	50.505	112.034	115.466	100.120	94.863	106.838	128.291	120.051	102.308	138.974	113.393	142.000	86.618	63.632	56.158	67.687	83.441
120060000	26.35	65.393	65.841	126.214	119.162	108.171	101.812	96.940	93.359	87.778	82.698	87.043	107.137	102.709	90.778	95.701	89.774	65.681	63.845	51.586	118.145	110.586	92.855	97.718	106.701	127.684	124.325	102.256	138.094	124.479	138.017	88.436	61.746	53.171	72.612	78.637
120100000	26.35	67.330	59.832	126.735	120.949	108.923	99.855	97.650	93.991	89.479	84.095	91.709	107.735	98.453	89.051	94.051	87.209	57.230	58.209	47.798	107.462	106.698	102.496	93.085	104.214	128.256	118.496	101.410	142.487	118.709	138.564	89.736	60.518	57.618	65.239	79.029
120140000	26.35	61.241	65.593	127.162	120.786	107.889	96.812	96.675	90.009	90.538	91.112	91.214	108.632	97.419	92.504	92.487	86.809	61.699	58.382	52.576	114.615	112.121	101.547	95.744	108.299	125.966	122.641	101.094	138.846	112.547	134.863	83.882	64.711	59.224	67.015	83.157
120180000	26.35	60.982	63.991	119.436	120.795	106.487	97.632	91.889	97.735	95.675	88.000	92.231	112.803	103.111	90.316	93.821	87.426	70.195	59.491	52.838	111.231	106.560	96.444	96.496	101.915	127.342	115.983	99.897	134.103	116.667	133.684	83.045	65.307	52.987	73.910	79.216
150020000	26.67	64.134	67.947	120.701	115.735	103.504	95.402	94.128	91.436	91.855	83.017	94.265	105.496	97.162	86.863	91.419	87.722	66.743	53.009	50.596	112.051	108.784	93.735	91.795	102.880	128.949	115.120	99.880	137.316	112.974	134.897	86.473	62.316	50.855	70.478	78.549
150060000	26.68	62.759	59.097	119.590	116.966	106.487	93.675	93.214	88.761	92.479	78.491	88.017	107.838	96.590	87.077	88.949	84.991	61.584	56.227	49.606	104.761	106.069	95.915	89.590	105.530	123.316	121.393	100.821	138.444	119.171	130.291	84.791	58.930	58.145	67.716	73.549
150100000	26.68	59.929	65.566	117.453	117.607	104.256	97.581	90.718	87.342	90.316	82.638	93.462	104.573	99.453	90.291	89.778	85.791	60.841	53.382	50.263	105.692	107.776	96.111	96.009	102.162	124.017	119.103	99.504	136.342	114.615	138.983	85.518	59.509	56.776	81.925	76.108
150140000	26.68	67.688	67.018	119.504	112.316	105.983	93.744	94.291	88.274	88.915	80.819	92.573	108.744	94.889	83.855	91.162	83.600	61.310	56.545	53.707	106.214	102.052	90.863	89.504	106.410	125.504	112.684	97.376	134.282	117.915	135.769	85.200	60.412	56.763	68.343	72.990
150180000	26.68	64.509	64.212	123.906	121.761	100.291	93.564	91.846	90.137	85.111	87.853	92.863	102.085	97.171	85.624	88.658	88.409	65.319	57.455	55.879	108.171	106.776	95.829	89.650	99.368	131.017	119.231	95.735	136.145	116.479	131.017	90.673	60.351	59.039	77.627	72.686
180020000	27.01	64.080	65.504	116.462	116.043	103.009	100.137	91.479	88.658	88.265	83.707	88.256	105.120	98.769	87.256	88.863	81.530	63.009	56.509	49.010	109.812	106.224	95.205	92.949	104.974	124.154	109.846	97.949	132.077	113.333	138.214	84.391	50.851	54.000	58.119	72.216
180060000	27.01	61.438	64.814	119.103	114.350	101.162	98.359	89.274	90.128	83.752	78.431	96.231	104.393	96.829	84.034	95.222	82.470	60.938	52.036	48.000	112.111	107.733	90.462	87.162	104.085	124.564	111.906	96.744	136.239	117.812	129.291	86.200	61.000	51.671	67.104	77.353
180100000	27.01	57.250	65.681	118.171	114.932	103.145	90.590	90.786	89.829	85.128	79.931	90.897	99.915	99.889	90.060	87.675	79.957	56.823	55.336	46.980	106.906	104.000	91.393	91.043	97.846	129.291	116.308	93.231	134.376	111.222	131.094	85.391	58.798	58.684	69.716	71.794
180140000	27.01	62.125	62.407	117.068	117.128	100.615	95.427	90.256	88.128	86.513	77.060	90.171	100.034	92.547	90.179	88.308	84.365	59.035	55.055	52.283	109.342	106.422	93.650	94.171	103.897	128.034	114.265	94.402	134.821	109.667	133.786	84.727	56.491	52.395	65.060	73.147
180180000	27.01	63.795	61.292	119.692	117.761	98.162	91.974	93.077	85.487	85.368	84.388	87.000	101.880	96.598	84.650	87.906	83.435	63.372	51.400	53.121	107.179	103.948	93.521	85.846	104.658	126.402	113.094	96.000	132.769	107.761	130.197	85.864	60.632	48.816	68.507	70.931
210020000	27.34	57.821	66.265	115.812	109.179	94.641	94.974	88.145	88.915	84.949	82.009	86.983	101.496	92.906	86.350	88.137	79.687	62.522	55.364	52.131	106.667	107.647	92.547	88.188	101.034	128.590	107.248	95.060	132.675	111.786	133.427	75.509	55.026	53.855	64.015	69.784
210060000	27.34	55.446	63.664	119.726	111.197	101.821	92.949	87.923	84.897	82.923	74.819	86.265	99.444	92.444	82.419	81.940	86.704	59.027	56.318	51.485	99.957	97.647	94.197	90.205	100.316	126.009	117.658	98.077	133.368	114.564	128.265	77.855	55.632	48.382	62.030	71.098
210100000	27.34	60.232	60.540	110.043	107.316	95.402	94.624	90.060	85.983	82.838	81.586	91.897	104.530	91.145	85.607	83.410	84.591	60.637	52.873	51.364	103.573	101.457	88.342	87.709	98.974	117.966	114.137	95.607	131.983	112.675	133.658	78.873	57.570	46.066	62.299	70.284
210140000	27.34	56.821	61.566	114.991	108.410	96.034	96.060	87.692	85.521	79.077	75.905	87.427	102.598	90.556	88.949	84.359	79.574	58.168	53.191	50.394	106.769	105.629	89.726	87.615	106.453	118.385	112.043	90.778	128.273	109.752	128.325	74.309	61.816	52.342	58.955	69.020
210180000	27.34	56.464	60.248	114.034	112.684	103.410	92.171	89.538	90.564	82.068	79.284	88.667	96.265	95.239	89.350	86.889	81.304	59.292	52.655	48.141	104.222	102.603	91.137	93.282	100.641	120.530	114.923	89.188	131.410	111.915	130.350	81.318	58.465	46.855	56.045	71.137
240020000	27.67	52.875	62.637	115.667	111.889	103.932	91.872	91.983	87.222	82.821	78.888	87.419	101.000	96.470	88.581	83.274	84.852	64.487	53.882	47.061	110.077	109.603	94.752	84.325	97.231	121.889	111.786	87.675	137.803	109.017	125.983	80.718	55.333	51.211	60.910	69.176
240060000	27.67	57.491	59.186	113.957	111.598	101.265	91.077	89.009	89.966	81.940	72.966	94.068	101.171	88.812	83.222	83.726	82.496	60.460	51.155	48.677	102.863	102.862	85.137	81.214	98.051	120.983	109.573	93.068	131.085	107.077	129.410	75.836	53.553	50.592	56.134	70.804
240100000	27.67	56.420	59.389	109.983	105.769	94.231	95.402	82.855	81.265	80.564	78.526	83.761	97.316	92.983	80.624	81.393	80.922	61.478	52.000	42.141	94.624	98.345	84.769	87.231	98.991	125.812	106.162	91.291	131.513	112.103	134.453	80.127	54.921	46.316	59.328	67.794
240140000	27.67	50.223	64.513	104.410	108.974	99.983	90.521	87.239	78.786	85.607	78.121	86.419	100.496	91.641	80.701	87.650	80.574	57.752	53.036	47.202	101.504	99.310	91.684	87.547	98.436	116.205	109.376	95.581	127.923	105.940	124.684	76.836	56.956	49.461	57.015	68.618
240180000	27.67	54.500	55.062	109.453	105.368	97.470	91.094	84.521	85.444	83.744	72.871	84.829	95.128	98.103	91.077	81.812	76.035	62.434	59.018	50.566	106.000	99.828	85.128	82.436	98.342	121.444	106.556	92.487	128.564	107.085	122.111	78.582	50.035	50.000	56.507	68.343
270020000	28.00	57.679	61.761	118.179	102.222	99.179	93.803	88.342	84.094	85.632	72.043	93.752	99.402	93.991	82.043	80.923	77.591	61.513	48.618	46.606	102.427	99.466	91.359	88.359	96.863	118.026	104.684	86.906	134.581	113.231	121.906	78.764	48.754	50.118	53.940	70.500
270060000	28.00	56.545	56.018	108.581	106.265	94.462	88.333	83.615	82.812	84.308	76.112	91.017	98.402	96.214	88.897	82.880	80.870	60.442	48.291	48.828	98.094	99.181	88.581	85.393	99.026	122.043	106.333	85.667	129.051	104.624	121.573	75.945	55.895	54.461	61.358	73.549
270100000	28.00	57.830	54.823	111.726	101.752	96.479	95.949	86.026	80.966	81.752	76.828	84.162	94.897	91.889	79.256	83.521	72.835	55.168	50.400	47.020	109.051	95.897	91.214	85.744	95.667	118.051	104.949	86.752	124.684	102.436	127.137	78.118	54.965	56.789	54.955	67.059
270140000	28.00	58.562	54.611	109.598	106.692	97.581	88.684	84.282	74.957	85.991	77.190	89.709	99.419	91.111	81.778	86.846	81.504	60.336	51.436	49.404	100.667	99.345	92.325	83.462	99.171	119.701	105.043	92.402	132.282	111.171	126.043	79.173	54.439	56.316	58.090	70.843
270180000	28.01	58.170	58.602	110.855	109.231	99.889	91.043	85.803	88.786	83.769	76.491	85.308	101.419	90.274	88.855	76.291	79.026	60.522	56.073	42.485	102.128	100.983	91.496	86.957	99.538	115.821	105.846	91.299	129.624	112.205	124.291	73.845	56.570	56.421	60.597	74.108
300020000	28.33	52.071	58.912	112.154	109.368	93.983	92.923	86.641	79.410	83.641	77.345	86.000	95.282	88.504	82.983	82.829	73.557	54.646	51.218	43.051	101.419	96.483	86.436	88.957	95.214	121.009	104.496	85.880	126.880	110.641	122.000	74.955	51.035	50.197	69.970	65.980
300060000	28.33	55.134	53.779	112.060	104.103	99.316	87.402	85.376	81.880	79.128	77.983	83.821	95.667	86.615	83.171	75.598	74.687	56.894	49.918	43.869	96.974	100.767	88.590	82.350	92.496	117.410	103.496	88.308	126.581	101.812	115.726	77.327	56.368	49.434	53.881	66.020
300100000	28.33	52.964	60.345	109.726	101.103	91.470	89.368	88.453	81.761	79.598	72.690	84.701	98.350	92.368	78.735	78.675	74.130	55.938	52.455	43.081	101.188	96.129	86.385	84.077	90.359	116.829	106.333	90.872	133.923	102.701	122.692	72.445	48.614	50.342	58.612	69.598
300140000	28.33	55.464	54.699	108.291	104.103	95.863	90.615	85.342	77.863	76.590	69.578	85.846	94.726	89.889	89.068	81.214	75.209	58.584	48.191	42.838	105.197	99.595	90.120	82.333	93.034	116.709	103.838	86.932	125.017	106.419	120.000	76.564	47.368	49.697	51.955	68.343
300180000	28.33	52.562	59.062	106.855	100.778	94.709	92.889	85.923	81.342	80.786	76.802	84.444	92.581	92.812	83.889	87.248	74.383	55.442	47.273	47.101	103.624	100.802	96.162	81.786	93.632	114.675	106.453	90.325	128.581	102.812	121.068	72.973	53.421	45.382	55.090	63.951
330020000	28.67	53.554	55.761	107.880	106.094	96.812	92.265	86.034	81.470	78.222	74.690	86.179	94.872	92.735	82.744	79.675	71.922	60.159	51.664	47.313	100.684	97.440	82.983	81.940	94.402	116.171	104.496	91.504	124.932	104.111	125.684	71.991	46.939	50.921	61.090	63.765
330060000	28.67	59.098	56.566	104.863	102.376	98.709	90.179	83.291	84.419	80.444	75.767	81.342	96.709	92.462	81.821	76.504	72.957	57.531	54.082	37.131	100.179	95.707	85.137	83.812	97.000	112.786	108.410	89.675	125.256	103.103	120.915	69.845	49.921	47.579	58.493	64.363
330100000	28.67	56.062	62.531	107.333	107.239	96.162	91.684	83.453	79.359	84.889	74.448	91.043	98.718	87.188	86.675	80.137	71.522	57.965	51.782	44.525	105.256	98.138	85.983	82.692	90.000	116.385	104.368	85.735	129.043	101.521	121.197	72.491	53.877	46.316	58.209	65.618
330140000	28.67	54.473	52.142	104.761	107.803	98.265	92.128	84.650	83.675	80.744	76.319	89.650	97.761	86.248	81.350	74.496	71.339	51.133	54.482	41.212	101.590	94.121	89.521	87.915	89.692	113.701	104.547	83.291	126.880	102.803	118.923	70.655	55.623	48.921	53.687	67.412
330180000	28.67	54.518	59.239	111.077	100.487	94.496	86.821	80.538	85.915	78.846	72.250	84.009	96.581	83.658	85.137	77.513	76.635	56.796	51.255	43.283	101.923	98.319	86.239	81.368	90.786	108.803	104.863	87.709	124.786	103.248	117.521	72.282	54.798	44.645	52.687	63.853
360020000	29.00	55.473	54.336	109.838	103.487	96.581	97.880	80.538	79.479	84.325	70.690	84.410	98.966	91.812	81.342	79.291	71.722	61.248	55.882	41.051	103.803	98.759	83.667	82.017	91.299	111.769	100.282	90.026	131.197	103.949	118.368	71.800	51.360	43.816	55.090	64.559
360060000	29.00	55.491	57.938	111.487	102.453	96.402	97.752	82.821	80.624	85.017	73.164	87.889	90.393	86.248	82.393	81.368	73.678	54.779	49.209	46.556	103.880	94.397	88.368	78.427	94.077	115.726	104.803	92.752	129.872	103.427	123.060	73.264	53.105	43.487	68.627	64.382
360100000	29.00	44.143	53.186	110.402	97.393	86.547	90.667	84.376	79.803	78.316	77.388	82.692	94.034	84.607	79.188	76.726	69.696	56.204	54.400	44.626	95.282	96.181	84.103	81.487	88.462	113.487	105.863	91.547	126.778	104.752	121.274	68.436	47.491	48.763	54.851	67.422
360140000	29.00	56.438	60.451	111.060	99.650	93.701	93.573	81.530	77.239	81.333	72.750	83.897	94.803	90.068	81.026	76.829	72.826	57.743	49.718	44.677	106.145	94.483	85.624	80.051	93.393	115.778	105.821	83.368	127.615	103.915	120.966	66.509	46.632	48.461	59.403	66.735
360180000	29.00	54.161	55.239	107.487	102.504	93.991	95.282	83.632	74.778	75.991	72.448	85.427	96.350	90.017	75.427	79.607	70.183	58.336	48.282	40.687	97.222	90.034	87.846	76.427	90.094	110.179	99.538	88.906	127.444	102.068	120.504	71.500	53.561	45.789	59.582	62.980
390020000	29.34	54.866	54.018	110.530	99.556	97.675	94.085	81.940	81.829	78.009	74.603	83.846	91.530	91.462	80.641	83.906	72.800	53.469	52.827	41.626	102.137	93.164	89.983	83.068	92.026	116.256	111.752	87.915	131.120	97.641	118.675	75.036	50.149	48.355	59.463	66.824
390060000	29.34	53.232	52.062	100.333	100.436	94.983	93.436	79.675	80.154	76.949	73.431	84.573	92.453	92.436	80.991	76.547	73.348	53.841	53.664	48.121	96.923	92.914	91.590	80.308	91.769	113.615	103.769	91.410	131.308	99.786	117.231	68.436	49.272	49.171	57.090	66.431
390100000	29.34	58.625	56.717	104.564	103.393	95.436	94.299	80.162	82.556	77.462	70.483	84.846	87.641	87.350	80.248	76.188	70.348	52.788	51.218	43.091	95.880	91.034	89.675	80.291	94.256	111.205	100.846	87.462	126.179	100.821	115.479	68.927	58.237	46.132	54.821	58.147
390140000	29.34	52.036	55.442	106.120	97.111	90.675	93.650	82.513	76.393	85.128	69.267	78.521	98.564	86.333	79.487	78.880	75.713	55.354	52.227	43.111	101.274	94.345	84.214	84.248	91.735	112.436	101.103	87.923	129.214	100.350	119.607	68.718	51.447	44.237	57.493	61.980
390180000	29.34	55.643	57.558	101.085	99.744	88.179	88.650	80.051	79.419	82.607	70.319	83.556	94.154	79.120	81.547	76.333	70.452	53.850	48.127	44.687	102.051	91.888	82.376	76.171	87.128	110.120	102.915	90.650	129.863	106.991	121.077	69.145	51.105	47.579	50.463	67.745
420020000	29.67	52.884	57.522	106.991	100.949	91.957	95.897	86.385	76.923	82.991	72.500	83.752	95.521	90.538	82.889	77.949	70.383	52.168	52.082	43.798	101.444	93.241	88.068	82.308	91.906	111.222	100.470	89.128	131.795	101.752	117.325	65.782	47.395	51.171	50.940	66.578
420060000	29.67	51.812	53.894	109.282	98.974	91.128	90.709	82.299	77.598	78.009	70.207	86.453	93.957	86.034	80.906	81.479	72.791	56.000	50.118	41.485	99.316	90.672	86.675	82.607	84.752	108.872	99.974	86.803	126.709	102.581	118.342	66.755	48.982	42.000	58.507	62.137
420100000	29.67	52.902	55.593	105.846	100.385	92.453	94.436	80.718	75.051	83.103	76.000	84.957	89.547	86.880	84.368	77.350	73.365	62.664	47.545	40.970	99.487	91.164	82.376	81.205	86.641	111.239	102.615	82.068	129.701	97.274	118.906	67.109	44.342	47.566	50.343	71.422
420140000	29.67	53.491	52.885	103.171	98.026	87.675	92.641	78.897	76.564	81.940	77.431	82.453	91.094	88.162	82.436	78.641	70.313	53.425	52.591	43.657	96.231	93.629	86.556	79.547	86.094	109.137	102.675	85.624	129.162	109.179	117.265	67.209	48.298	43.816	53.687	61.853
420180000	29.67	55.339	55.398	103.829	98.462	91.333	92.966	84.812	81.145	80.274	72.336	76.333	94.274	83.897	76.316	78.017	68.557	56.655	49.291	40.687	96.692	92.353	86.256	78.470	83.504	112.966	103.650	86.009	123.795	101.692	117.769	67.036	53.167	44.013	56.284	61.500
450020000	30.00	55.768	57.009	103.829	98.675	90.239	96.231	79.214	78.410	86.111	71.759	85.812	95.966	89.274	85.410	77.915	67.896	56.062	49.709	43.131	102.239	92.991	82.538	79.966	84.085	114.248	99.598	87.462	133.880	98.709	119.034	68.109	50.614	50.013	57.672	62.451
450060000	30.00	51.286	57.389	108.282	99.427	91.590	96.769	79.530	78.607	78.590	72.871	86.017	93.000	87.795	84.402	75.496	75.461	50.602	53.027	46.465	101.803	92.328	86.504	81.222	83.350	105.598	99.658	89.641	132.462	102.325	117.222	67.364	48.167	41.447	59.209	68.108
450100000	30.00	50.830	57.088	106.744	97.188	99.427	94.897	81.581	83.017	78.607	74.638	84.735	93.051	88.077	83.863	77.291	75.878	53.150	47.755	43.253	100.453	87.431	87.034	77.795	87.838	105.718	101.017	88.880	129.761	101.239	114.632	68.982	48.526	43.395	53.045	67.775
450140000	30.00	58.920	58.319	104.915	99.496	92.145	95.299	82.701	78.376	78.744	76.319	82.128	92.487	86.872	78.726	76.667	70.957	55.920	50.664	41.889	100.179	92.121	88.957	82.855	88.239	113.521	102.179	85.829	122.368	100.214	111.547	68.836	50.018	50.842	60.030	65.088
450180000	30.00	51.795	53.212	106.222	103.231	93.205	93.265	82.880	77.932	85.308	72.345	75.846	94.111	82.889	76.154	76.803	71.235	53.912	46.864	37.010	101.214	94.121	83.880	78.709	92.487	112.863	104.453	82.983	125.607	103.812	123.350	69.900	50.421	41.474	56.493	59.794
480020000	30.34	53.804	56.301	103.897	98.590	95.197	91.752	86.684	74.658	80.564	76.172	79.650	91.282	87.393	82.368	77.043	67.487	52.345	44.100	40.626	101.419	91.638	84.359	77.915	91.205	112.248	102.479	90.521	136.547	102.521	117.470	65.873	49.596	43.842	56.612	57.412
480060000	30.34	53.062	55.115	107.521	102.316	94.556	97.846	81.838	81.803	82.855	74.086	78.829	94.598	87.949	79.239	84.427	74.652	59.018	52.836	46.576	98.103	94.888	89.957	80.769	93.735	109.308	106.598	96.120	130.538	98.410	118.171	69.991	50.798	40.079	54.612	71.373
480100000	30.34	52.571	51.779	102.769	100.821	90.282	96.530	76.786	74.137	72.923	71.560	80.521	93.120	89.308	85.487	81.650	67.965	55.832	49.555	44.000	99.735	94.319	88.350	83.179	90.137	111.359	105.034	87.889	127.692	101.769	112.940	62.845	51.807	45.816	55.881	66.873
480140000	30.34	51.143	56.655	101.410	98.855	91.803	95.026	82.863	75.308	82.821	72.302	82.393	96.521	85.402	82.658	79.744	65.965	56.035	49.591	42.172	100.556	92.853	84.650	78.359	83.111	108.171	99.564	86.983	130.333	104.470	116.256	65.627	49.254	42.092	53.582	68.480
480180000	30.34	52.875	54.593	108.325	101.974	91.009	91.991	83.684	83.051	84.504	73.371	82.803	93.256	84.795	83.368	77.872	75.278	61.442	48.645	43.242	101.085	93.517	92.521	80.590	86.538	107.513	109.342	91.803	125.462	105.812	118.000	70.173	50.702	44.539	59.015	67.206
510020000	30.68	56.384	57.106	106.162	102.573	90.282	98.701	84.419	78.769	80.530	73.655	89.769	93.692	87.308	80.479	73.350	74.478	60.274	49.000	46.404	97.453	88.069	91.667	81.872	89.436	111.342	104.769	86.641	127.496	107.453	119.812	65.491	49.772	43.500	58.299	63.373
510060000	30.68	57.116	56.018	101.692	96.863	93.530	93.376	82.017	79.684	82.068	72.060	82.111	93.282	83.735	79.504	73.291	69.583	56.088	50.964	44.010	106.308	96.052	88.863	79.675	92.521	113.838	102.188	85.667	129.795	99.752	117.718	68.073	52.930	39.632	59.328	65.922
510100000	30.68	52.223	56.982	105.761	101.145	94.530	97.274	82.470	79.641	78.889	75.603	84.906	91.607	88.795	80.590	76.137	75.443	55.195	46.291	42.323	89.145	86.362	89.419	80.274	85.487	108.120	104.068	92.197	129.803	102.256	121.949	69.418	51.658	48.697	54.597	66.461
510140000	30.68	51.991	55.354	109.726	93.624	94.171	96.179	80.120	77.932	76.043	73.319	80.017	87.983	85.658	83.709	73.897	69.339	49.894	42.700	41.758	97.026	86.147	86.504	81.923	91.735	112.684	101.795	89.880	133.547	99.436	113.650	68.236	48.632	43.461	56.985	65.392
510180000	30.68	53.205	54.177	105.239	99.624	89.154	94.650	79.821	73.359	83.607	71.448	82.564	89.744	87.376	73.060	77.256	72.270	52.593	46.282	43.172	96.829	93.198	86.316	80.111	88.974	106.521	98.231	90.265	130.410	103.709	120.111	68.291	50.772	42.539	49.179	64.059
540020000	31.01	53.562	58.991	96.684	97.778	93.957	94.256	79.462	78.103	79.590	73.000	83.607	91.744	88.077	82.385	80.991	71.487	54.832	50.000	43.596	100.188	92.741	86.154	83.239	92.675	112.513	106.385	82.556	126.026	104.949	120.923	68.882	50.035	44.474	54.134	67.725
540060000	31.01	50.920	50.451	99.316	101.419	93.043	93.718	85.162	84.795	83.094	65.871	83.205	92.872	85.291	77.103	73.726	70.652	55.965	41.245	42.263	102.214	93.371	87.590	80.256	82.974	108.735	97.274	86.162	128.573	98.906	119.615	67.536	49.026	43.553	54.582	61.892
540100000	31.01	57.214	54.345	103.889	101.684	90.564	94.077	83.359	77.436	80.821	71.491	85.932	92.872	87.188	79.316	73.701	69.557	53.575	50.455	42.162	97.282	90.353	83.650	78.991	89.701	114.376	94.179	89.419	131.684	102.949	119.444	61.227	47.596	41.645	57.284	63.882
540140000	31.01	54.161	59.000	103.085	103.017	94.889	94.462	84.556	79.786	77.752	68.948	83.932	94.239	86.350	78.385	71.120	69.809	52.097	47.073	45.869	93.658	88.466	90.179	74.325	85.077	114.538	105.308	91.350	124.034	99.496	113.188	68.391	49.719	46.776	60.761	62.412
540180000	31.01	58.929	53.566	99.684	97.496	93.128	92.581	80.650	87.949	80.436	71.698	82.932	90.564	85.256	74.444	73.068	69.278	51.681	54.073	39.020	95.846	91.638	85.179	80.256	84.376	102.923	102.265	88.863	130.615	100.248	113.803	64.945	50.868	44.013	53.851	64.922
570020000	31.34	53.429	55.292	100.932	96.291	95.239	94.274	85.171	77.718	78.897	67.095	85.692	91.282	89.402	81.504	73.735	68.896	55.726	44.545	43.374	99.068	93.647	88.145	81.282	85.692	112.171	103.692	94.231	132.017	101.675	115.453	67.127	46.491	41.329	55.313	64.853
570060000	31.34	53.634	57.274	104.496	99.795	85.718	100.462	86.957	79.923	82.299	67.879	83.598	95.598	86.538	76.436	78.274	64.609	53.664	49.545	43.061	103.094	91.974	84.812	79.940	87.436	111.504	105.496	87.479	130.470	98.855	116.607	63.173	49.009	41.368	59.075	62.235
570100000	31.34	57.438	55.150	101.419	98.632	92.504	91.624	82.744	79.735	82.957	73.603	79.368	86.624	82.709	85.051	80.316	68.930	55.965	47.373	41.354	102.504	89.414	84.188	77.462	90.564	111.222	98.427	87.000	124.726	100.966	113.513	70.382	48.342	45.447	50.015	67.176
570140000	31.34	55.295	59.460	104.188	101.222	87.769	102.940	87.590	79.812	80.265	68.828	84.393	95.308	85.684	85.410	72.282	67.461	56.522	47.364	41.152	106.530	85.526	84.197	70.735	89.462	117.863	104.744	89.410	130.718	98.897	119.060	61.936	51.842	42.026	53.358	69.431
570180000	31.34	50.848	53.991	99.308	97.863	88.436	95.821	75.291	77.923	82.795	73.397	81.308	91.410	86.966	77.906	77.889	69.113	52.115	51.336	40.667	95.385	92.233	88.316	76.410	87.111	111.496	103.350	90.855	126.205	104.513	116.444	66.918	48.518	43.855	54.970	67.725
600020000	31.68	55.482	56.832	102.949	103.590	89.453	98.231	83.821	79.949	81.325	69.862	78.615	90.154	88.752	83.427	74.821	70.957	54.372	54.391	39.737	96.496	90.836	88.316	80.333	88.444	108.863	105.077	86.051	134.282	104.573	120.974	72.445	51.693	46.250	53.478	63.275
600060000	31.68	55.518	53.611	105.786	98.350	93.188	95.735	82.239	79.350	74.009	72.345	80.342	86.863	81.479	79.162	78.675	69.800	53.876	50.836	40.313	102.795	89.172	87.812	81.248	92.684	117.419	101.308	84.949	131.906	97.239	116.205	69.573	51.605	44.145	57.448	61.431
600100000	31.68	51.500	56.496	102.726	99.291	90.162	95.991	83.359	83.444	81.376	69.940	83.479	96.077	87.812	78.795	80.120	69.435	55.726	44.800	42.020	100.795	95.336	84.359	80.419	89.556	108.453	97.077	86.932	131.282	103.718	113.778	63.109	54.114	38.066	52.373	66.176
600140000	31.68	53.580	54.460	100.308	103.419	89.444	94.786	87.231	75.359	79.265	66.707	81.667	93.556	82.556	82.897	77.256	69.600	53.876	54.100	47.141	95.863	91.750	84.726	82.872	85.709	108.906	103.120	88.376	125.769	99.513	117.350	67.355	48.105	42.605	51.030	64.696
600180000	31.68	50.071	52.841	106.872	99.547	86.239	95.752	83.735	78.265	83.043	71.655	75.137	91.111	85.368	78.556	75.906	67.365	51.195	48.118	40.010	100.504	92.784	85.624	84.923	84.299	105.316	97.786	89.667	128.316	103.325	112.239	66.155	51.956	41.474	59.791	61.324
630020000	32.03	53.500	60.000	107.214	98.624	93.179	100.598	83.359	78.376	88.504	70.009	85.538	96.803	85.974	81.675	73.385	67.696	55.265	46.655	43.434	98.068	94.647	88.342	81.829	86.094	109.530	103.368	92.128	127.949	108.325	117.231	66.800	47.570	43.026	56.806	69.196
630060000	32.03	54.500	54.407	104.274	98.154	96.453	90.487	89.427	81.991	77.137	73.086	82.684	86.863	85.530	81.940	75.675	66.704	60.018	49.545	41.586	96.462	89.983	86.316	76.496	91.385	111.000	99.179	86.222	130.171	100.051	121.991	63.291	52.956	46.500	59.821	64.431
630100000	32.03	53.884	53.513	103.111	100.333	87.043	96.838	81.726	75.692	79.479	67.353	84.214	94.932	88.863	79.479	78.470	66.626	55.991	52.982	36.071	95.761	94.276	88.641	80.889	84.026	112.769	107.256	87.154	128.436	101.761	119.265	66.382	52.535	46.368	60.612	67.775
630140000	32.03	55.821	55.195	101.179	95.991	92.120	95.188	83.043	77.906	81.838	69.655	79.479	87.906	85.983	80.530	76.624	61.452	52.788	51.227	41.394	94.538	90.784	88.299	79.521	88.513	112.103	103.179	90.094	125.556	104.838	112.214	66.136	55.140	42.816	59.836	64.784
630180000	32.03	52.643	57.735	105.812	102.410	84.547	93.085	81.487	77.735	79.060	69.948	76.111	90.923	78.624	79.197	78.205	71.035	55.903	49.791	38.566	97.222	94.991	84.897	81.239	85.718	113.308	101.085	85.068	128.462	98.778	114.966	67.636	51.421	45.105	53.806	57.961
660020000	32.35	55.830	58.080	104.521	96.855	86.590	93.590	83.239	76.368	85.009	75.129	81.573	92.744	86.641	77.829	77.658	71.609	54.788	48.682	37.707	102.504	93.957	87.812	75.017	87.145	113.556	96.496	85.171	130.256	105.043	123.359	61.736	54.412	38.000	49.687	65.784
660060000	32.35	54.214	57.469	106.111	100.966	87.094	94.940	87.316	80.205	77.427	72.190	82.393	94.667	84.393	80.051	72.060	69.426	50.044	47.645	43.020	98.752	91.871	87.103	78.598	85.983	113.060	102.684	89.658	128.829	100.333	117.017	66.064	52.044	45.250	61.731	62.422
660100000	32.35	51.705	56.646	104.077	98.564	91.504	97.573	83.103	83.009	81.068	68.966	81.462	93.103	86.060	77.000	73.291	71.791	57.221	44.164	40.515	101.342	93.957	91.530	75.513	92.265	110.462	105.376	86.658	129.701	103.026	114.581	71.282	52.228	44.316	60.000	66.608
660140000	32.35	57.768	53.717	103.581	103.897	89.735	97.726	81.573	77.239	77.530	72.716	79.436	90.624	89.043	85.513	75.265	70.043	52.027	51.373	38.990	94.513	97.095	87.256	77.376	85.222	110.479	102.154	79.162	130.872	94.684	123.615	66.973	50.684	45.382	56.507	63.961
660180000	32.35	51.866	55.823	107.675	101.650	90.068	97.974	86.915	76.812	83.154	65.284	81.094	92.462	87.949	78.829	76.462	69.913	51.142	52.191	41.879	94.735	91.379	85.615	81.410	86.624	112.581	104.786	90.419	128.692	105.350	122.282	69.482	53.737	44.605	51.672	65.049
690020000	32.68	58.107	53.513	106.650	101.162	93.607	96.889	79.513	72.786	79.316	65.371	77.709	94.060	89.436	81.983	77.632	71.191	55.876	47.400	46.051	93.769	93.940	87.906	79.983	82.769	110.735	105.573	85.239	131.744	104.316	118.368	63.764	47.518	49.461	58.582	66.059
690060000	32.68	52.821	58.062	103.752	99.060	92.949	95.188	82.487	73.359	77.607	73.853	81.547	88.590	90.299	78.726	73.932	64.939	55.115	47.500	42.364	99.009	93.595	85.838	75.504	86.171	114.427	99.897	88.855	131.197	96.385	112.786	71.900	53.070	39.895	59.269	61.892
690100000	32.68	53.143	56.319	104.085	101.060	87.291	94.983	82.376	75.650	81.077	69.940	81.547	89.291	86.812	82.641	74.462	66.539	52.027	49.809	36.273	93.641	93.284	82.342	79.265	85.120	111.675	101.291	86.735	132.513	96.496	116.427	65.427	52.737	42.987	55.672	65.255
690140000	32.68	53.652	52.168	97.239	98.479	91.769	95.342	80.641	77.009	77.077	72.345	81.838	91.915	87.957	79.590	73.496	72.357	55.549	48.445	48.859	100.556	93.216	84.513	79.376	87.855	112.684	102.479	81.171	127.137	98.632	112.009	62.509	51.614	41.645	57.940	63.539
690180000	32.68	55.964	54.018	104.265	105.197	88.077	96.530	82.299	78.940	81.863	69.586	81.137	87.538	85.752	79.128	73.026	62.843	52.726	44.309	38.192	90.145	94.974	84.607	81.120	91.496	107.103	102.120	88.957	126.496	100.966	111.624	70.836	51.728	48.947	47.955	67.696
720020000	33.02	52.750	56.513	108.966	94.000	88.085	98.188	82.889	79.308	81.675	73.517	77.017	91.530	84.282	78.744	76.120	67.548	55.929	50.336	44.020	99.949	92.767	89.342	80.350	89.000	109.769	103.692	90.359	134.974	97.085	116.829	70.500	50.044	37.605	57.836	65.275
720060000	33.02	57.679	54.434	103.778	100.316	90.504	93.530	87.333	84.803	86.120	64.086	78.128	85.735	85.060	77.658	72.521	67.261	57.310	45.082	38.141	105.940	89.543	83.564	78.846	87.068	115.333	99.949	88.479	128.376	103.436	115.632	66.464	56.482	43.342	57.776	64.765
720100000	33.02	57.955	52.292	105.094	101.162	91.308	95.154	84.385	81.504	85.530	67.431	79.214	89.658	82.641	75.282	72.342	66.922	53.699	48.382	37.495	95.957	90.595	85.521	74.932	87.470	113.470	100.932	90.966	130.949	100.137	118.256	68.755	52.754	46.605	57.373	61.686
720140000	33.02	56.357	53.478	104.427	100.017	98.325	98.726	80.966	80.701	78.778	70.836	79.872	91.026	82.547	83.410	77.829	75.052	57.239	46.164	43.828	102.624	93.526	85.085	76.803	82.641	110.479	100.470	89.231	127.179	100.906	119.829	61.609	52.018	44.553	54.881	67.451
720180000	33.02	60.268	53.655	100.128	101.590	91.607	95.179	85.607	73.214	79.684	70.448	74.342	89.256	86.376	78.325	70.316	68.339	58.150	48.555	40.636	103.299	88.224	86.650	78.667	88.239	114.453	98.889	89.786	131.333	100.410	115.017	70.545	55.175	40.013	55.582	65.108
750020000	33.35	54.339	52.398	105.094	95.821	95.034	95.966	83.940	75.470	83.171	72.224	81.966	88.991	85.795	80.504	77.487	71.496	53.274	48.236	41.061	99.650	97.267	87.487	82.675	89.043	108.863	100.068	81.017	133.291	105.692	115.957	65.000	51.500	39.382	56.045	63.951
750060000	33.35	55.598	55.345	103.556	97.530	91.974	96.051	84.632	79.709	81.752	68.810	72.120	95.017	87.821	79.188	76.615	73.035	56.124	47.164	41.747	103.872	94.759	84.821	79.607	88.974	110.949	104.641	92.171	124.205	105.769	115.667	64.682	53.991	41.026	55.552	66.725
750100000	33.35	53.080	58.177	106.897	100.077	94.624	100.188	86.068	84.103	81.530	66.759	83.632	94.684	86.957	84.316	77.521	68.591	53.717	55.745	42.747	102.060	93.422	88.068	83.812	84.556	114.350	104.265	90.496	128.718	104.932	116.179	63.927	55.061	41.908	56.284	67.284
750140000	33.35	55.625	61.283	103.803	94.897	92.248	91.436	85.957	72.222	86.838	71.448	79.436	89.692	87.863	75.752	76.803	68.878	56.690	52.591	39.869	98.162	90.716	81.803	80.068	84.974	107.111	105.000	91.547	132.949	102.376	114.923	64.873	48.184	39.987	57.701	67.333
750180000	33.35	53.750	49.673	102.350	103.137	90.402	95.094	85.256	71.068	77.991	73.353	83.983	93.504	89.846	82.556	79.316	72.670	56.982	47.691	45.162	94.299	92.526	88.479	78.496	84.821	110.949	101.026	88.812	130.419	97.128	111.103	68.855	54.430	44.513	57.627	65.902
780020000	33.68	54.286	54.212	107.504	101.855	92.026	97.812	82.906	75.966	78.709	77.276	83.897	87.214	89.897	79.094	76.162	66.617	53.761	50.536	49.404	104.325	97.457	88.547	83.949	88.145	108.402	103.872	91.735	129.060	100.077	118.769	66.273	51.974	48.921	57.851	66.078
780060000	33.68	52.036	56.257	105.991	102.504	87.838	101.658	82.863	77.274	85.103	68.422	88.128	89.581	85.256	84.726	75.744	67.035	54.885	50.982	45.141	94.256	92.509	85.897	86.376	86.778	113.701	103.077	91.957	134.863	102.479	114.726	67.509	52.658	48.382	66.478	65.245
780100000	33.68	59.402	54.115	104.496	105.376	93.829	95.462	80.274	80.692	78.846	70.353	79.265	94.179	88.162	83.265	76.402	65.113	51.832	48.000	40.283	95.667	95.862	93.256	78.744	88.957	110.692	105.479	87.573	131.590	103.444	112.427	71.755	53.158	44.197	57.134	61.775
780140000	33.68	60.429	56.310	106.880	99.607	90.897	94.239	81.188	77.795	85.299	70.690	80.043	96.487	82.838	83.231	76.393	69.017	58.681	49.227	43.717	99.701	91.664	83.949	76.154	84.855	108.316	98.051	83.239	130.966	102.111	113.419	70.318	52.044	43.842	52.687	62.559
780180000	33.68	48.571	55.212	103.248	95.752	93.632	90.624	80.667	71.906	80.915	67.078	80.564	89.402	83.128	76.564	69.179	64.226	55.619	47.164	37.455	96.701	93.974	89.897	78.094	87.393	113.265	102.906	84.222	127.573	99.179	110.863	63.491	53.307	46.118	54.239	60.216
810020000	34.01	51.277	56.434	106.368	102.538	89.897	92.368	85.231	77.538	80.718	71.586	81.094	93.624	88.333	80.863	71.590	71.765	52.531	51.564	44.636	100.897	94.371	89.812	81.265	91.179	114.590	110.222	85.590	130.171	99.145	120.427	66.527	51.825	44.500	56.716	62.980
810060000	34.01	55.384	57.646	106.906	104.855	92.060	97.239	86.402	82.855	79.299	67.836	80.060	94.333	83.658	82.368	74.530	74.339	51.549	52.109	42.970	100.726	91.172	94.359	83.308	90.179	114.966	99.581	89.154	131.376	97.769	112.778	73.245	51.746	44.197	51.373	67.608
810100000	34.01	60.312	52.982	103.359	96.838	86.026	98.111	91.573	77.795	83.915	75.414	85.111	89.487	81.564	79.778	75.248	72.035	57.018	46.700	40.838	101.060	90.707	84.265	78.564	84.641	117.419	102.128	91.496	134.658	97.761	114.205	66.127	53.886	44.329	58.343	66.873
810140000	34.01	57.330	53.106	104.274	104.692	87.615	96.009	80.795	80.009	78.333	73.759	81.641	92.701	89.581	80.906	71.607	68.922	51.442	49.173	39.859	96.359	90.328	84.752	75.359	85.923	116.863	100.034	85.957	129.513	98.026	118.009	62.191	51.132	41.684	55.015	66.853
810180000	34.01	52.125	56.558	106.530	97.265	87.991	92.692	84.444	77.051	80.120	69.034	82.359	93.949	84.487	80.709	73.342	68.443	50.858	46.655	42.202	96.419	88.043	84.248	75.410	91.385	110.906	99.855	79.299	124.197	94.513	114.863	67.455	51.307	39.000	59.821	60.412
840020000	34.34	53.652	53.398	106.068	94.744	88.726	101.308	84.060	74.333	82.761	72.586	81.368	96.504	88.427	79.581	77.103	69.357	57.912	53.109	43.990	96.957	99.000	84.803	77.094	85.872	116.667	104.256	85.812	136.256	103.154	121.573	65.709	51.860	37.289	52.567	68.775
840060000	34.34	56.795	61.425	102.838	103.444	96.863	95.590	87.342	75.923	78.915	67.784	84.350	95.179	93.009	74.470	78.034	71.339	53.912	52.464	42.212	96.607	94.698	86.752	77.231	86.846	117.197	100.316	83.376	132.017	105.333	114.402	66.564	52.956	42.158	48.373	68.431
840100000	34.34	61.089	59.584	107.786	95.667	91.487	98.744	83.709	76.316	78.991	70.147	79.034	95.966	81.487	76.085	73.761	67.974	56.752	51.882	43.505	99.684	93.233	89.000	75.573	87.598	106.718	105.744	85.556	130.214	104.641	115.667	63.482	49.096	45.684	63.567	66.196
840140000	34.35	59.179	56.009	104.803	103.906	89.701	98.932	84.547	75.188	80.530	74.284	77.265	89.530	83.991	76.829	72.026	71.026	54.513	50.209	42.495	97.650	95.509	90.137	75.863	87.316	106.171	100.385	83.068	132.991	96.231	119.342	62.736	53.482	41.500	58.328	66.882
840180000	34.35	54.830	53.522	101.966	95.632	89.803	92.590	84.838	75.538	85.556	70.560	76.726	93.368	82.581	75.496	74.803	67.635	56.177	48.118	38.949	99.436	95.888	83.385	77.060	85.880	110.470	97.274	82.342	128.179	97.436	111.701	67.945	50.421	40.961	55.433	66.314
870020000	34.68	52.143	54.619	104.197	97.641	90.487	96.291	84.427	78.043	81.350	70.284	76.838	92.752	85.128	79.513	72.880	71.087	55.239	48.155	38.919	94.709	94.078	86.718	77.145	95.932	109.282	105.632	85.795	132.359	104.128	120.453	68.682	50.763	45.329	57.403	64.402
870060000	34.68	53.223	52.637	103.393	105.060	97.111	98.368	76.846	80.274	78.496	66.552	81.496	93.274	86.291	81.128	74.487	77.278	59.929	52.945	37.646	101.906	94.595	89.120	83.094	85.940	106.684	101.342	87.974	130.248	99.812	121.051	66.445	50.956	41.289	56.746	59.745
870100000	34.68	48.562	55.726	101.274	98.325	87.145	97.077	85.179	75.974	81.556	72.853	78.932	89.803	87.632	79.538	79.667	73.304	56.133	49.109	41.515	87.641	93.914	87.350	74.000	89.368	110.803	103.590	85.650	125.863	96.538	113.462	68.127	53.228	42.697	58.791	66.441
870140000	34.68	55.277	55.354	105.325	98.598	96.410	95.906	84.974	79.692	82.667	68.052	80.419	97.120	84.915	83.547	72.855	72.104	58.478	47.918	41.354	101.744	92.190	85.598	74.684	87.282	115.239	93.846	87.197	125.906	102.462	122.154	65.382	49.088	42.447	57.045	68.176
870180000	34.68	53.080	50.814	107.615	101.111	96.470	95.872	79.333	73.239	78.513	63.543	81.650	91.709	84.060	81.872	75.504	69.322	56.920	48.891	43.818	98.564	93.319	87.641	79.897	88.453	112.496	102.496	85.043	125.496	103.068	115.675	65.164	54.158	38.605	57.537	67.833
900020000	35.02	55.188	59.947	104.051	103.444	92.521	96.376	81.427	77.034	81.949	68.888	81.359	97.957	85.718	79.479	77.974	69.930	55.407	47.727	42.323	99.838	93.698	86.470	79.308	82.667	114.111	99.402	89.761	131.350	102.017	120.453	61.400	51.202	38.513	61.567	69.814
900060000	35.02	50.768	61.000	102.718	96.026	87.530	102.889	83.735	74.547	78.462	70.440	77.111	90.991	84.034	79.350	72.154	68.313	54.053	55.455	39.919	99.880	88.095	83.111	82.641	84.068	109.581	98.325	84.410	130.880	101.325	118.496	68.782	50.623	43.316	56.507	71.304
900100000	35.02	52.491	54.690	108.026	100.641	90.487	98.667	81.590	74.547	81.145	71.690	78.214	94.718	85.197	73.803	78.000	74.365	52.009	49.955	37.859	95.316	93.310	90.274	78.496	87.872	107.761	100.863	90.214	127.487	99.368	113.248	67.900	49.711	49.842	53.955	74.049
900140000	35.02	54.562	53.628	103.641	98.615	91.222	97.402	87.265	76.487	84.410	74.017	82.632	91.701	83.197	81.376	77.735	69.261	60.159	48.500	41.030	102.205	90.690	88.427	75.009	87.838	113.462	102.880	83.333	124.068	102.009	114.573	65.455	53.272	45.237	52.060	63.000
900180000	35.02	50.241	57.690	100.017	101.598	86.145	96.641	82.282	77.632	77.615	71.112	80.103	89.966	91.590	75.983	71.991	71.774	57.991	46.882	41.838	96.068	90.534	84.051	80.521	85.846	112.085	99.538	91.761	133.966	99.709	116.436	61.800	54.693	43.408	60.567	65.873
930020000	35.34	54.518	57.212	105.547	97.393	94.043	96.436	87.197	78.538	83.462	71.302	85.718	92.179	88.949	85.530	80.521	76.104	53.991	50.464	43.828	99.974	90.172	90.342	78.051	90.752	112.949	99.000	89.094	131.308	106.282	121.752	64.164	53.140	38.092	60.493	69.029
930060000	35.34	54.643	55.850	101.513	96.427	93.248	96.667	82.513	79.786	82.051	66.897	81.402	91.846	84.043	81.872	71.667	69.687	49.628	49.891	38.646	103.103	95.000	85.026	80.692	87.598	118.863	99.752	89.889	133.188	102.547	120.581	73.300	52.895	45.697	62.925	68.010
930100000	35.35	59.232	56.920	108.692	104.248	90.803	92.667	84.880	83.231	82.906	71.621	78.436	92.650	84.880	79.726	75.051	67.835	57.867	47.809	43.000	100.009	97.578	90.581	80.855	90.573	113.410	104.325	81.906	130.624	96.889	118.111	65.782	53.219	46.539	58.313	67.814
930140000	35.35	55.054	58.451	105.880	103.376	93.726	97.034	85.632	74.838	79.872	70.991	82.470	94.026	83.880	81.111	73.778	69.878	49.965	51.218	38.717	94.880	89.026	87.821	74.880	87.692	107.957	102.624	82.068	129.094	101.829	115.974	65.718	52.421	42.000	55.030	67.902
930180000	35.35	53.518	51.451	103.265	95.632	91.077	94.521	84.299	76.538	80.632	69.793	81.060	88.641	92.231	80.556	75.120	68.443	54.867	46.155	40.465	98.214	94.129	85.487	78.692	83.940	110.556	103.513	89.026	131.205	100.479	114.624	68.536	52.833	42.355	51.000	66.775
960020000	35.68	54.277	61.044	105.444	96.154	85.803	100.701	83.684	76.436	82.145	68.698	77.573	97.325	85.009	77.855	75.624	68.096	53.973	52.745	42.778	101.590	96.379	87.991	79.179	84.966	112.829	99.863	87.530	131.598	105.564	117.966	65.927	49.860	41.987	67.567	70.608
960060000	35.68	55.161	57.956	105.479	95.462	96.077	99.017	86.274	75.316	83.632	67.897	80.752	97.744	83.487	77.470	74.615	71.922	57.239	47.691	45.960	102.197	92.422	83.889	74.940	85.299	112.744	98.675	86.880	128.778	101.897	113.171	66.209	51.930	42.079	56.448	71.882
960100000	35.68	54.616	57.726	105.427	98.325	89.530	100.769	78.991	75.821	83.205	72.793	81.957	95.222	91.573	78.863	76.034	71.070	56.177	52.500	46.222	96.376	93.052	86.932	67.932	94.085	119.923	100.333	87.470	133.145	107.188	114.479	65.536	51.351	42.289	50.731	62.804
960140000	35.68	53.527	57.912	100.778	99.991	88.564	92.632	77.701	72.248	78.444	69.121	81.966	88.017	85.214	78.316	75.906	68.496	58.009	51.918	44.374	99.120	92.862	90.949	74.974	83.137	112.291	100.718	83.239	133.350	104.761	116.615	67.391	53.263	42.053	52.269	63.676
960180000	35.68	51.652	54.531	104.872	101.658	87.239	97.556	82.256	73.615	81.265	65.414	77.701	90.462	82.838	82.769	73.368	67.435	58.699	50.382	42.960	96.325	93.103	83.000	75.675	82.667	110.983	99.017	83.957	131.769	98.795	116.744	70.909	51.904	44.763	54.597	62.676
990020000	36.02	53.250	49.239	103.752	96.205	86.641	105.145	86.333	78.197	82.624	75.345	87.197	95.880	87.564	82.316	79.248	66.861	55.779	48.745	40.051	96.077	94.422	88.726	82.060	86.120	108.855	103.889	85.128	126.154	102.872	118.940	70.709	55.930	44.368	56.597	63.539
990060000	36.02	56.000	56.257	103.923	103.590	89.470	97.872	82.248	77.795	80.479	72.155	80.051	94.410	82.906	78.667	73.103	63.270	59.168	50.564	47.081	99.667	95.198	88.188	77.521	85.291	114.282	103.436	82.701	132.051	102.504	120.496	68.273	56.614	44.908	59.328	63.559
990100000	36.02	55.661	53.850	101.991	95.513	82.393	95.940	84.282	78.402	81.496	79.362	79.085	96.769	80.701	79.940	75.026	64.687	58.274	53.027	40.192	95.812	95.138	86.470	73.043	84.026	116.915	99.462	86.538	128.624	100.094	116.709	69.182	46.228	41.895	56.493	70.667
990140000	36.02	58.911	55.743	103.632	96.991	87.513	97.171	84.821	80.171	83.350	72.069	78.650	97.983	89.197	77.923	78.744	65.165	55.425	50.482	39.232	97.017	91.638	87.718	81.299	86.496	111.248	103.915	79.684	126.043	104.521	114.094	66.291	50.623	47.289	56.388	66.402
990180000	36.02	50.661	53.982	99.949	97.034	86.624	100.085	81.299	77.923	80.316	71.483	79.538	87.479	86.607	77.171	74.872	66.191	54.009	51.755	34.071	93.513	95.078	87.171	81.162	84.470	114.795	102.103	84.470	126.282	98.932	117.436	63.645	53.219	45.013	54.463	58.676
1020020000	36.34	57.759	59.372	101.103	95.453	89.094	97.675	86.188	78.462	81.350	68.948	81.128	92.821	86.308	79.556	78.000	71.113	55.319	48.727	40.545	92.051	90.078	92.957	77.974	87.402	111.863	108.803	81.564	127.752	101.607	115.325	61.273	53.667	48.526	52.448	68.745
1020060000	36.34	55.607	56.345	101.538	99.752	87.846	99.769	80.786	79.265	82.368	70.009	77.274	89.120	85.325	75.598	74.547	66.078	52.106	50.473	37.374	96.137	93.155	88.462	75.752	89.761	116.744	100.487	80.692	134.846	99.513	114.350	64.464	55.219	39.395	57.776	68.186
1020100000	36.35	50.795	62.195	103.231	100.650	91.504	96.829	83.769	77.709	82.590	74.534	78.496	97.222	86.470	80.658	77.940	65.226	52.973	48.382	41.394	101.538	92.138	88.607	74.103	84.778	114.120	101.462	89.436	138.419	99.521	115.385	67.700	53.833	45.711	62.328	63.765
1020140000	36.35	54.795	56.230	106.521	105.009	90.068	97.957	89.726	74.308	78.359	69.147	81.111	94.333	86.436	82.915	75.556	74.861	52.841	54.300	42.162	99.402	92.336	83.752	77.812	85.308	114.607	104.487	83.342	131.855	99.752	119.752	67.118	56.175	50.553	57.373	66.392
1020180000	36.35	51.750	55.814	102.838	98.915	87.239	97.256	81.667	75.880	81.162	66.828	82.419	94.701	79.821	79.043	70.769	66.426	52.796	49.982	37.828	101.547	90.043	87.932	75.829	85.761	119.282	97.538	81.128	129.043	100.017	115.325	64.564	49.465	52.066	52.836	65.716
1050020000	36.67	59.446	54.566	105.496	97.547	91.632	97.291	81.846	78.872	85.299	73.302	82.838	90.692	86.966	77.051	73.598	67.513	52.115	48.145	46.121	96.675	92.457	91.838	83.094	87.265	108.974	107.564	84.513	130.838	102.427	111.026	72.082	54.377	43.539	56.045	64.255
1050060000	36.68	55.027	54.690	104.923	98.974	89.342	96.034	85.282	77.906	78.376	69.991	81.949	90.829	86.368	81.829	74.479	68.235	56.531	49.918	44.010	97.103	91.379	89.504	76.803	88.205	113.060	102.932	87.436	132.778	103.880	112.598	68.855	55.640	47.803	60.836	64.951
1050100000	36.68	51.571	53.912	108.197	99.214	93.692	93.607	81.932	72.761	81.872	69.983	80.872	95.282	86.325	78.530	75.556	70.226	54.212	52.073	47.010	92.419	90.534	87.291	75.274	86.171	115.786	100.308	86.137	132.803	108.154	119.957	68.373	57.474	41.947	62.403	69.402
1050140000	36.68	50.634	53.212	100.436	97.675	92.650	97.179	88.034	75.085	82.325	70.345	83.795	93.761	81.821	82.256	78.573	72.339	53.929	52.564	45.141	97.239	92.595	85.718	77.205	86.462	110.359	102.162	82.060	129.538	102.085	113.214	67.800	57.482	39.013	56.209	64.618
1050180000	36.68	51.321	54.398	100.513	99.171	85.889	100.778	84.436	72.718	81.179	72.328	76.949	95.598	86.333	79.504	70.496	69.939	53.159	49.955	42.657	97.692	92.181	85.598	73.855	83.829	111.026	104.650	88.376	127.872	102.325	115.205	70.655	53.246	43.118	53.970	67.451
1080020000	37.01	55.018	52.460	109.051	99.726	92.333	94.513	85.726	78.359	81.709	71.336	75.983	93.846	90.470	81.829	77.906	70.374	56.080	51.445	42.111	97.504	94.750	87.513	80.598	90.444	113.376	104.137	83.744	128.983	108.521	118.504	72.327	56.877	41.421	55.642	66.392
1080060000	37.01	56.580	54.743	104.282	102.265	89.872	97.778	79.632	73.556	80.256	70.560	77.487	93.667	87.444	81.256	76.034	68.365	56.496	53.618	42.424	97.179	93.379	89.068	81.957	86.120	114.744	103.009	85.051	129.308	102.726	117.906	67.336	53.965	43.526	62.269	71.078
1080100000	37.01	63.438	55.398	104.197	97.487	90.675	95.932	79.017	76.427	84.068	67.147	77.812	96.556	87.966	77.778	75.222	72.348	59.867	53.200	38.283	95.957	97.216	82.179	70.479	90.299	111.316	101.650	85.983	127.179	99.932	115.701	67.764	51.728	43.895	61.522	66.941
1080140000	37.01	53.312	53.035	102.632	101.624	88.214	93.744	80.846	75.991	73.735	70.750	79.197	92.368	84.325	75.444	73.701	68.261	49.336	48.591	42.354	95.709	87.828	87.256	81.436	88.094	114.291	99.274	81.402	134.838	96.427	114.521	67.264	52.360	43.105	56.388	66.588
1080180000	37.01	53.679	60.195	101.974	102.256	87.120	99.419	81.838	76.983	85.043	67.388	81.718	88.906	84.615	77.744	74.060	69.226	57.027	51.327	37.727	95.487	95.284	88.085	81.795	83.590	113.316	106.701	84.402	127.957	101.726	111.521	67.818	49.553	48.382	52.597	64.755
1110020000	37.34	59.205	57.938	106.325	103.897	92.667	92.291	87.256	82.376	79.410	70.379	80.974	88.154	82.077	81.034	75.325	68.043	51.973	50.327	41.424	100.154	93.664	89.256	76.154	89.256	108.538	100.427	86.120	136.256	98.077	118.145	68.655	55.377	45.868	53.970	60.255
1110060000	37.34	54.670	57.044	102.359	100.846	84.410	103.786	86.368	74.436	77.932	64.121	76.718	89.513	86.000	75.906	74.521	71.261	57.699	49.809	43.636	99.111	90.526	90.906	76.265	82.940	114.786	103.179	84.632	130.462	102.111	113.991	65.400	52.719	43.382	57.134	62.637
1110100000	37.34	54.393	57.504	103.265	109.162	89.462	95.197	82.855	77.103	78.342	68.017	78.718	90.769	86.214	80.427	74.829	64.539	53.425	49.191	42.364	100.504	88.991	89.291	71.590	87.872	114.274	104.778	82.906	135.137	98.709	112.607	70.664	55.263	50.553	53.224	65.245
1110140000	37.34	55.875	55.938	103.479	100.436	88.068	96.923	80.385	76.701	77.444	69.629	82.419	97.325	82.650	73.342	71.769	65.643	59.354	49.273	37.051	100.744	85.250	86.017	78.932	94.692	114.103	102.427	83.128	128.897	97.718	112.795	66.355	58.798	49.132	53.567	61.647
1110180000	37.34	53.464	53.496	104.769	100.145	84.265	95.239	86.838	77.248	85.120	67.672	81.906	95.444	82.402	84.000	73.017	71.365	60.947	48.736	39.364	98.274	95.759	85.957	80.949	87.470	121.111	104.154	85.667	129.538	103.615	117.957	69.645	57.640	43.711	64.537	64.745
1140020000	37.68	51.295	61.027	102.607	103.462	88.009	94.803	87.239	75.812	86.410	71.819	77.094	96.316	87.564	83.051	79.205	68.078	57.265	46.382	45.253	98.333	98.466	82.821	79.897	91.718	112.726	103.470	84.282	132.641	108.111	119.966	73.845	54.272	47.750	56.224	73.265
1140060000	37.68	49.509	57.646	98.376	99.171	86.803	97.299	77.547	75.282	83.658	73.931	78.470	93.051	87.128	76.846	80.026	65.270	60.664	53.536	42.545	97.479	96.879	93.991	74.154	83.085	109.188	97.513	82.350	131.419	103.846	117.607	69.364	55.149	43.145	50.851	69.176
1140100000	37.68	50.384	52.336	105.034	103.239	90.701	96.940	81.991	81.530	82.282	72.983	75.821	95.650	87.581	79.000	78.590	64.017	54.867	52.909	42.162	105.162	93.560	90.043	78.863	82.436	115.564	101.154	83.957	126.573	98.735	115.068	71.045	56.789	44.987	58.269	65.951
1140140000	37.68	51.259	58.080	101.308	100.949	88.906	99.812	90.291	77.034	81.393	65.862	74.872	91.111	81.521	77.248	74.983	65.591	53.690	53.755	41.788	103.350	90.103	88.068	78.068	88.607	114.855	102.718	85.821	129.632	106.966	112.376	62.873	54.860	49.079	58.507	69.755
1140180000	37.68	56.714	59.389	99.256	107.179	88.556	91.650	78.479	76.265	81.256	70.078	77.205	95.752	85.393	71.684	75.829	69.757	56.584	49.527	37.929	95.145	90.828	87.547	75.863	83.846	115.983	102.735	83.641	132.325	99.889	114.863	69.609	55.018	44.697	56.642	66.569
1170020000	38.02	55.098	60.664	105.299	97.291	89.043	97.171	84.427	75.085	81.325	74.586	82.188	96.145	87.983	81.803	75.231	68.261	54.239	56.155	43.970	96.718	97.328	89.342	79.419	86.573	112.607	100.145	90.581	128.573	102.017	119.598	68.200	53.956	46.605	58.015	62.765
1170060000	38.02	56.562	54.841	105.179	96.650	87.145	96.701	86.470	79.060	77.991	69.776	81.436	91.778	86.342	79.632	79.453	64.383	56.805	47.109	42.313	99.530	91.629	85.564	70.718	89.017	115.350	102.291	81.658	128.752	98.308	115.829	73.291	55.000	51.895	58.134	69.000
1170100000	38.02	57.250	61.115	104.932	100.838	92.239	103.735	81.256	82.641	81.855	71.560	73.658	93.838	84.291	82.855	74.718	67.278	56.549	47.955	40.545	102.667	94.500	83.889	76.915	90.607	112.145	104.111	83.368	128.402	101.274	119.009	65.845	60.412	46.553	56.194	65.137
1170140000	38.02	56.045	50.611	103.846	97.291	88.368	96.761	80.692	74.547	87.393	73.345	75.821	97.120	85.615	81.607	73.726	63.452	54.796	49.145	43.040	98.205	88.828	86.650	77.410	87.880	110.957	98.906	82.650	130.128	106.162	120.410	65.800	52.623	40.539	57.537	66.186
1170180000	38.02	59.527	59.885	104.880	97.111	90.684	96.709	87.179	78.855	83.333	68.603	72.316	95.051	82.590	75.376	73.265	65.843	58.814	45.809	36.636	96.701	93.853	94.085	78.838	87.342	109.547	100.675	85.342	130.026	101.906	109.530	63.645	55.263	41.276	59.925	68.657
1200020000	38.35	55.643	57.177	103.940	97.957	88.726	99.282	79.402	74.462	79.547	73.621	82.171	91.752	86.752	80.752	75.222	66.930	51.602	49.436	42.485	98.855	92.009	83.966	77.402	84.162	114.795	102.940	81.590	132.350	106.359	117.701	67.918	54.377	47.658	58.925	66.500
1200060000	38.35	58.768	59.027	107.154	103.017	91.111	102.299	79.368	74.650	81.658	72.009	81.590	92.821	88.291	80.333	76.718	66.400	55.212	50.445	44.586	98.624	92.931	88.368	81.624	84.316	117.188	105.564	91.966	136.915	100.060	119.094	71.218	54.825	42.829	51.687	68.696
1200100000	38.35	50.848	57.389	101.607	101.077	89.479	97.897	85.479	75.752	79.342	71.259	79.026	95.350	89.077	78.274	74.607	66.539	56.779	49.364	42.434	103.137	92.078	90.821	83.846	88.274	117.607	105.496	84.239	131.974	97.641	114.291	73.173	55.465	46.526	55.060	69.196
1200140000	38.35	55.009	57.903	100.128	101.556	88.308	96.966	80.692	72.650	78.607	71.966	81.752	88.761	86.795	77.889	73.632	69.661	58.283	52.273	41.869	99.444	96.491	89.650	75.983	83.487	116.949	99.812	89.701	132.744	97.744	113.564	69.627	57.342	43.671	54.537	61.755
1200180000	38.35	51.062	58.788	107.077	96.521	91.778	101.333	83.590	76.855	85.402	72.198	79.470	92.761	84.342	77.846	78.863	65.678	57.115	52.700	42.475	102.188	91.319	85.726	76.957	85.598	109.889	101.188	83.376	130.453	99.615	119.615	64.200	54.360	47.829	60.597	67.569
1230020000	38.68	57.652	58.991	107.026	99.949	91.325	99.932	80.256	78.231	82.231	70.784	77.154	92.120	89.111	72.530	80.564	66.391	57.805	48.109	38.919	102.188	96.336	90.034	78.880	85.795	110.085	99.573	86.923	128.940	101.624	118.991	67.136	51.895	42.421	59.149	72.431
1230060000	38.68	54.598	58.770	106.103	91.650	91.880	102.530	85.812	76.333	81.385	68.112	81.735	94.385	86.222	79.077	74.333	65.548	54.053	49.191	43.030	100.470	95.871	87.316	71.915	91.769	117.427	104.658	83.154	133.359	108.017	115.556	61.755	57.658	42.618	58.015	66.510
1230100000	38.68	54.884	53.372	100.735	92.462	89.154	98.402	82.675	71.530	80.795	71.724	80.282	89.658	82.641	86.632	76.026	64.817	54.035	50.136	39.747	99.923	96.440	88.077	78.479	84.504	111.889	104.701	81.496	131.376	103.547	118.932	67.245	58.500	47.289	51.985	65.765
1230140000	38.68	54.643	53.796	100.197	102.060	90.026	97.017	85.581	77.094	81.145	71.267	77.675	93.410	86.761	80.453	72.863	64.322	53.602	48.409	36.667	98.786	93.414	86.812	74.675	81.188	117.171	101.521	84.427	126.752	107.103	115.838	67.436	49.781	48.237	55.881	65.598
1230180000	38.68	53.268	52.690	102.915	100.282	83.752	101.051	78.444	74.761	82.350	72.379	81.171	93.068	83.521	83.444	70.248	63.200	52.708	46.455	45.455	98.923	91.716	86.068	77.513	84.684	110.897	101.838	83.068	129.880	100.692	113.615	64.609	55.632	44.118	53.627	61.843
1260020000	39.02	52.473	57.929	102.496	99.709	91.906	99.718	83.325	81.000	82.940	67.966	80.359	96.778	84.034	81.479	72.436	69.339	54.062	50.964	38.222	104.641	94.983	87.197	79.983	83.556	113.538	102.932	85.162	131.248	100.368	116.009	72.591	58.982	43.447	58.104	64.647
1260060000	39.02	49.670	64.487	103.709	94.650	89.359	96.368	85.556	73.761	81.009	72.655	82.598	90.632	87.846	78.162	77.043	69.087	55.133	52.018	44.051	96.709	97.922	82.855	76.060	89.718	110.624	101.308	85.590	132.393	105.214	114.812	65.500	55.342	42.263	61.925	68.294
1260100000	39.02	57.946	59.336	100.137	95.966	90.966	100.051	82.479	78.949	81.769	69.440	81.179	94.128	88.231	80.197	73.957	63.148	53.168	51.382	39.253	102.402	93.440	86.436	79.607	89.521	114.513	103.940	78.786	124.915	100.171	117.684	67.145	54.693	46.395	60.866	62.461
1260140000	39.02	53.384	56.283	104.709	96.615	88.402	99.043	78.821	76.060	83.171	69.690	78.026	94.786	88.735	82.735	72.701	67.887	57.274	47.355	36.677	96.111	91.784	87.256	78.744	87.427	112.564	99.889	87.214	124.513	102.709	118.145	69.900	48.789	43.895	54.955	65.588
1260180000	39.02	52.893	55.938	99.718	93.205	84.966	96.179	83.359	79.530	83.350	71.828	77.402	96.197	83.145	79.778	78.786	63.052	56.133	47.009	37.162	100.393	92.534	88.051	76.427	85.427	118.983	98.197	81.256	127.573	101.889	117.333	69.055	55.430	43.776	56.373	63.627
1290020000	39.34	58.054	57.265	107.829	101.983	84.632	98.761	82.376	71.564	79.573	69.362	73.983	96.017	88.256	82.530	79.436	67.113	54.186	48.955	43.727	102.744	95.526	89.957	76.530	90.162	114.299	106.291	87.701	136.333	101.068	117.923	71.800	52.456	42.092	59.582	68.147
1290060000	39.34	53.536	61.593	106.393	98.957	92.060	102.991	83.957	76.120	83.667	73.595	76.316	97.983	85.667	78.573	67.376	66.000	55.540	48.373	36.505	101.795	94.759	87.085	73.778	85.778	115.624	94.171	88.530	136.197	102.923	115.026	64.591	53.553	40.421	63.075	70.098
1290100000	39.34	52.759	56.717	107.650	99.863	88.299	99.316	82.368	71.103	79.068	67.819	75.385	94.974	85.496	77.915	76.932	66.122	55.239	50.945	41.263	93.231	96.810	89.120	76.009	87.735	118.641	100.376	85.547	127.162	105.513	121.248	67.009	54.360	46.408	60.493	65.108
1290140000	39.34	51.509	56.814	97.829	98.556	86.675	100.222	81.299	72.590	78.581	74.095	74.265	89.376	87.923	78.393	79.103	69.104	55.124	47.573	45.040	93.402	94.034	89.043	79.000	88.188	116.726	100.487	82.521	125.376	102.590	117.803	70.536	52.000	47.974	55.164	67.412
1290180000	39.34	52.223	59.814	103.658	96.769	88.692	99.376	79.547	76.145	83.641	67.371	82.128	91.769	80.256	78.940	74.769	63.930	52.265	49.209	42.192	97.026	93.138	91.991	76.333	83.590	115.188	102.308	79.085	129.778	100.393	116.308	65.409	56.105	39.763	56.328	68.284
1320020000	39.66	55.795	63.982	111.479	95.803	82.974	94.761	81.915	78.735	83.359	73.353	81.803	96.325	89.863	81.735	74.590	66.078	57.752	48.818	41.737	95.504	92.974	92.573	84.128	86.359	117.889	98.692	75.538	127.726	108.043	117.632	67.873	51.904	47.237	58.910	67.304
1320060000	39.66	54.670	59.628	101.547	103.393	88.308	96.855	83.214	79.043	80.231	71.241	76.350	93.000	86.214	76.197	73.444	68.270	51.885	52.955	38.505	94.897	89.259	87.538	75.137	86.214	115.581	101.872	86.880	133.068	101.419	111.812	71.545	55.114	48.934	60.149	62.657
1320100000	39.66	57.786	60.150	106.795	106.231	92.026	94.197	83.650	76.991	76.368	69.750	77.718	88.325	83.726	80.077	79.419	67.757	58.080	56.300	38.010	98.120	95.147	84.786	75.385	88.744	118.026	101.444	83.538	130.675	102.453	111.085	67.845	54.789	45.868	62.000	65.137
1320140000	39.66	51.036	54.752	99.658	98.829	91.718	101.778	83.692	74.897	78.333	69.241	76.308	92.496	85.000	82.368	77.325	68.417	51.106	49.145	41.848	98.897	90.216	84.017	81.547	90.752	117.103	99.402	77.009	129.880	97.325	113.214	66.855	55.342	45.868	58.896	65.667
1320180000	39.66	53.491	54.549	108.615	104.043	91.342	101.838	87.231	76.487	80.521	73.586	77.393	92.248	85.880	80.214	76.274	67.130	56.451	47.273	39.040	102.128	94.759	85.197	74.538	90.137	113.256	97.675	83.590	131.915	103.077	117.342	71.227	55.719	42.408	59.045	72.598
1350020000	40.00	50.491	58.602	103.778	103.530	88.581	97.863	82.308	76.966	84.026	68.741	73.393	91.915	87.940	79.906	82.291	66.278	59.071	51.327	44.970	97.752	101.207	89.496	73.778	87.060	115.000	102.197	85.205	134.137	101.496	117.538	66.164	58.912	44.947	56.672	69.235
1350060000	40.00	52.554	56.796	105.060	102.786	87.128	99.590	82.179	76.453	78.419	64.690	78.154	92.786	79.308	76.299	77.444	68.183	52.673	47.536	44.111	100.744	92.147	89.231	72.222	86.282	116.470	102.590	83.171	129.940	96.752	119.410	69.827	54.114	41.421	52.448	66.588
1350100000	40.00	51.670	54.460	109.650	98.479	88.462	94.308	83.231	69.111	83.513	70.603	80.752	92.034	90.496	78.017	77.479	68.235	55.699	51.291	41.293	101.308	95.957	88.701	77.983	86.974	116.547	101.709	83.684	130.453	100.051	114.735	67.264	49.649	46.408	55.463	66.520
1350140000	40.00	57.348	60.602	100.291	102.624	93.402	98.812	80.598	78.265	75.521	69.716	74.829	93.846	84.017	79.564	74.838	67.426	57.257	47.873	42.697	105.726	93.233	84.812	73.949	81.632	115.197	100.786	82.607	129.419	100.043	116.923	65.673	51.140	44.618	56.000	66.402
1350180000	40.00	52.429	55.540	104.632	98.368	88.846	96.761	80.368	77.145	85.983	71.569	79.556	94.385	86.906	82.299	76.145	68.383	58.832	52.736	40.758	103.316	91.388	86.650	75.940	84.291	117.590	106.222	82.718	132.436	102.325	114.427	66.273	52.079	45.145	67.179	62.784
1380020000	40.32	56.884	60.558	103.299	97.402	88.385	99.607	82.274	80.265	77.923	74.267	79.496	92.496	79.410	82.709	84.470	70.704	55.487	56.245	42.717	98.137	98.948	90.026	81.162	89.786	113.393	101.957	83.829	133.778	99.632	119.615	65.336	50.307	46.329	60.746	64.167
1380060000	40.32	56.875	59.885	105.573	102.274	89.795	99.274	82.214	83.197	79.419	68.871	81.983	97.538	90.333	77.051	81.239	72.922	59.779	46.936	40.636	106.538	92.388	91.051	79.325	89.376	106.598	105.026	85.410	128.795	104.034	119.752	66.591	57.632	44.697	54.358	67.804
1380100000	40.32	54.982	59.584	106.547	106.504	87.239	100.513	81.812	80.470	79.325	71.009	82.068	86.709	81.308	78.128	77.316	70.096	51.531	51.936	39.333	98.077	85.681	87.726	75.487	84.923	115.479	106.897	80.179	127.795	99.769	112.650	70.927	57.140	49.395	57.090	62.412
1380140000	40.32	56.366	60.071	102.803	99.581	89.496	101.752	82.932	77.111	83.282	70.845	81.068	96.393	87.274	79.111	76.436	67.591	58.292	54.882	39.960	94.299	93.966	93.761	76.889	86.402	110.462	101.265	85.248	127.009	95.701	114.333	63.782	54.351	47.132	59.194	65.882
1380180000	40.32	51.625	62.354	103.462	93.120	90.991	98.436	83.632	74.966	77.436	73.276	76.137	89.897	86.692	85.350	80.444	67.296	59.142	46.891	42.879	96.966	94.216	88.641	79.496	82.667	112.812	99.573	80.778	128.727	102.137	116.573	66.091	55.211	41.882	53.881	61.441
1410020000	40.66	57.982	60.611	108.487	95.991	92.932	100.821	82.197	76.368	82.932	73.690	82.026	95.855	88.897	81.111	79.350	69.374	59.796	56.718	42.101	106.333	97.422	93.359	80.444	92.256	114.812	104.000	83.889	127.128	102.530	122.103	74.000	58.088	48.408	60.149	63.892
1410060000	40.66	54.812	57.062	108.761	99.590	87.530	98.897	83.778	78.470	86.812	71.879	79.462	93.231	85.641	80.957	74.171	65.296	59.283	49.391	42.596	98.487	93.164	92.282	74.769	90.291	115.949	107.239	80.530	129.727	107.085	118.855	71.900	59.430	44.026	60.179	69.529
1410100000	40.66	57.339	63.345	99.855	99.932	89.966	98.624	79.325	82.231	81.350	71.310	77.393	95.034	86.932	80.615	75.333	63.426	51.637	56.182	45.253	100.128	90.328	88.385	71.726	86.239	113.350	103.333	83.274	130.615	100.060	118.744	65.891	55.816	50.000	59.343	66.990
1410140000	40.66	59.893	59.788	105.658	104.496	85.137	98.393	84.496	74.581	84.761	72.112	78.171	97.179	85.803	86.239	76.385	68.383	53.850	48.673	41.788	100.632	89.552	89.197	76.897	89.385	113.966	98.889	83.513	129.034	98.897	116.701	73.518	55.018	47.066	57.179	64.373
1410180000	40.66	52.509	52.982	100.128	99.282	93.248	98.462	84.231	82.453	83.000	68.974	74.581	95.026	81.803	80.368	74.222	65.939	56.381	51.264	42.222	100.829	93.819	88.162	74.410	89.308	115.521	107.419	82.410	126.171	103.214	117.889	66.664	59.377	51.355	59.672	68.500
1440020000	41.01	55.500	56.770	106.222	99.846	90.060	100.470	84.385	77.761	82.333	74.000	81.222	98.462	85.966	79.752	77.880	68.470	58.106	51.473	46.949	98.897	96.612	86.872	76.769	91.316	116.974	101.761	83.248	135.744	107.991	118.171	64.209	56.158	40.408	56.701	65.794
1440060000	41.01	55.696	56.239	105.282	100.368	86.821	97.906	87.547	79.265	82.855	71.336	82.299	98.128	85.615	76.897	74.205	69.096	54.717	51.464	45.030	101.923	89.069	89.402	77.162	86.034	112.436	103.299	81.769	132.017	106.333	117.872	69.909	59.035	48.355	56.687	71.784
1440100000	41.01	55.696	54.602	101.248	101.282	91.291	97.316	80.573	77.812	83.863	71.155	88.043	96.744	88.265	81.726	73.179	67.826	56.664	55.291	41.394	95.427	90.767	87.692	78.607	90.701	109.282	102.735	81.359	130.983	99.171	118.274	69.618	56.667	44.539	56.582	70.931
1440140000	41.01	47.098	52.726	100.487	99.402	84.880	98.949	79.342	74.564	82.701	65.129	76.231	92.863	84.299	74.009	74.812	62.791	54.354	47.691	39.869	102.171	95.129	89.487	74.906	86.085	114.590	99.778	82.538	132.145	95.402	112.026	64.291	50.947	42.355	62.269	62.902
1440180000	41.01	50.652	59.708	104.197	96.701	88.342	97.983	82.368	73.829	86.256	71.491	81.650	90.564	90.350	81.265	72.889	65.087	55.053	53.400	39.788	97.120	96.388	86.274	74.154	88.769	113.615	101.085	81.179	126.761	100.239	115.675	64.382	53.974	46.961	58.746	62.235
1470020000	41.34	53.438	54.071	106.350	98.120	87.026	101.188	84.154	78.265	84.846	71.103	80.872	94.308	89.342	81.675	82.880	74.061	56.673	52.509	41.606	99.598	98.500	88.650	79.974	85.735	110.564	102.590	85.342	135.897	102.692	115.983	76.764	57.228	46.789	52.642	71.520
1470060000	41.34	51.545	60.071	104.000	99.991	85.248	95.214	78.726	79.462	86.282	73.560	79.821	93.974	85.385	83.778	78.590	71.052	58.053	53.445	41.768	94.556	96.250	86.316	75.564	84.274	112.316	104.812	80.761	134.308	104.205	114.991	66.400	52.588	48.118	60.254	65.755
1470100000	41.34	52.455	54.743	99.538	103.761	89.932	96.658	81.402	75.615	80.256	69.233	79.103	95.829	87.590	81.838	78.077	69.148	58.920	54.127	45.687	100.786	92.759	93.564	76.068	91.581	110.940	99.068	83.803	132.085	98.274	116.915	63.936	54.298	49.697	58.164	65.912
1470140000	41.34	54.920	58.478	108.205	101.197	90.991	98.556	84.043	82.171	81.128	72.500	82.068	93.188	85.949	84.573	76.402	70.104	57.885	51.809	39.545	96.419	91.991	88.812	81.179	87.017	110.299	100.504	84.436	129.932	103.735	115.812	64.209	58.009	43.974	65.209	66.559
1470180000	41.34	50.705	54.938	99.752	96.923	84.265	99.444	84.000	75.103	76.932	73.216	76.940	94.949	91.957	79.427	73.359	66.678	55.761	50.327	44.131	95.940	92.422	95.855	75.214	84.009	108.479	92.556	81.573	131.496	101.368	117.205	64.400	54.561	45.158	55.851	65.941
1500020000	41.67	53.554	55.628	109.120	99.513	91.974	96.419	81.906	83.376	83.316	75.276	83.333	93.188	86.299	81.188	75.590	66.496	60.345	50.064	46.596	101.803	95.750	89.957	79.504	90.094	112.974	104.034	88.752	133.282	102.350	127.120	65.036	57.842	47.000	54.836	70.961
1500060000	41.67	56.732	54.460	105.282	103.812	85.496	94.786	80.752	77.171	86.504	73.388	78.769	94.855	83.419	79.863	78.009	67.400	57.540	49.655	44.889	99.641	93.190	88.051	74.017	88.556	113.803	100.846	85.513	129.581	101.855	122.120	71.364	58.807	50.368	57.925	68.873
1500100000	41.67	56.982	53.150	103.222	100.812	86.615	97.120	82.556	80.496	83.846	79.026	80.376	93.128	90.060	82.068	75.846	69.739	56.726	50.727	44.808	99.846	100.078	88.385	79.094	88.111	113.214	103.803	75.427	130.299	96.043	119.094	71.027	59.439	47.921	53.731	59.598
1500140000	41.67	51.732	55.035	106.316	96.667	90.641	99.863	80.735	80.838	84.171	76.069	75.162	98.915	94.256	81.966	75.256	65.983	58.168	53.727	44.343	98.701	94.466	95.393	81.009	86.359	114.521	101.239	82.915	127.462	98.581	115.214	66.245	61.193	44.184	53.672	61.461
1500180000	41.67	53.062	56.336	101.675	104.650	88.462	100.889	81.274	77.795	83.128	68.957	75.684	95.308	82.291	81.573	73.026	68.391	57.186	50.255	34.909	99.692	90.440	87.966	70.932	89.120	118.470	103.188	84.641	129.675	99.487	122.838	73.509	57.158	45.171	52.746	63.980
1530020000	42.01	56.571	61.319	103.556	103.684	92.803	100.880	87.145	81.607	82.094	73.741	83.872	92.615	84.231	77.333	77.282	67.087	59.478	54.382	44.465	97.718	93.922	93.479	80.556	85.043	110.128	104.684	89.880	132.718	103.726	119.632	74.445	58.281	45.289	62.209	67.833
1530060000	42.01	56.009	64.699	108.769	103.838	88.803	103.786	83.632	82.034	86.017	73.112	83.197	99.444	88.838	83.359	73.863	70.130	56.885	50.027	42.495	105.444	92.353	92.427	78.299	86.897	113.709	101.128	83.197	132.769	99.419	118.573	69.418	58.719	45.013	56.104	67.049
1530100000	42.01	50.482	57.673	107.726	102.188	84.880	97.350	80.632	81.376	84.709	71.500	79.222	92.530	83.573	83.462	70.479	64.591	58.903	48.173	39.364	99.778	88.819	89.222	76.889	85.068	113.521	99.573	80.940	135.846	100.863	121.222	65.455	52.868	41.605	63.179	62.863
1530140000	42.01	56.911	56.673	103.145	98.786	89.248	101.385	81.897	81.615	83.658	69.655	77.632	96.120	84.487	85.197	77.812	67.791	60.265	51.673	43.424	102.017	97.069	85.350	77.316	86.838	114.855	101.077	87.846	124.410	98.726	121.274	67.145	53.132	48.566	57.328	62.853
1530180000	42.01	52.446	63.478	107.786	104.051	85.701	95.205	78.880	78.726	80.026	69.819	76.239	96.248	83.009	85.103	74.812	68.957	54.894	50.255	38.717	101.350	93.138	91.128	72.231	86.923	113.872	103.940	88.214	131.752	96.855	116.615	67.273	51.316	47.895	56.970	63.637
1560020000	42.34	58.277	55.398	108.068	103.120	88.573	98.855	84.068	74.709	78.974	76.069	86.214	98.453	91.350	81.692	78.906	70.374	54.336	56.891	43.717	99.641	93.810	91.231	77.385	87.179	117.274	101.419	86.128	134.803	100.274	122.521	69.509	59.640	47.737	63.806	69.088
1560060000	42.34	54.036	55.982	107.530	99.094	85.658	100.573	84.581	72.983	81.256	70.603	80.624	96.487	86.932	80.769	77.376	70.157	57.195	48.164	39.939	100.453	95.147	90.821	77.205	91.966	114.718	106.581	85.034	134.735	101.479	119.402	64.945	51.123	43.316	53.493	67.980
1560100000	42.35	54.375	57.796	103.316	99.111	88.359	99.145	86.427	79.145	80.752	69.060	82.051	95.026	85.915	83.077	78.350	72.548	55.345	49.600	43.202	101.838	90.707	89.000	79.718	90.000	120.402	105.624	80.983	132.273	100.060	115.103	69.264	56.711	45.526	57.776	62.657
1560140000	42.35	53.009	59.389	105.607	102.043	90.632	99.419	84.855	77.803	81.256	69.422	79.530	99.966	87.470	79.256	79.214	65.983	59.619	49.736	43.828	104.103	96.336	91.957	74.906	86.197	107.162	99.427	79.752	131.803	103.222	119.991	69.618	55.193	49.513	59.403	71.716
1560180000	42.35	53.214	61.310	104.829	97.667	91.530	96.009	87.547	75.496	80.154	74.922	80.598	96.103	82.906	81.282	75.145	65.609	56.664	48.709	43.556	99.479	96.457	89.085	80.863	89.385	112.863	97.385	85.034	131.316	96.256	110.744	63.191	56.500	41.355	61.463	65.843
1590020000	42.68	52.670	54.496	108.231	105.128	88.333	97.906	79.308	78.325	86.513	72.776	82.658	99.838	86.043	80.410	74.778	68.243	61.372	52.655	41.444	100.880	93.698	87.154	78.043	85.735	119.299	100.846	84.803	135.641	104.120	119.855	71.573	52.684	48.934	58.015	68.235
1590060000	42.68	54.304	63.301	102.530	101.769	92.051	99.590	84.453	77.427	79.188	65.871	78.197	97.026	86.966	78.000	74.197	64.504	52.929	49.700	39.364	100.179	95.534	88.094	77.496	84.957	116.385	101.128	84.590	135.154	98.470	126.051	73.700	62.175	43.855	63.239	67.784
1590100000	42.68	61.830	54.982	101.778	98.530	92.094	102.701	83.128	82.248	80.214	72.164	77.000	95.607	89.564	80.855	74.051	66.774	62.292	55.373	41.566	101.778	91.655	89.923	77.786	86.547	115.726	110.718	85.838	131.957	103.479	123.504	65.536	59.982	49.184	58.642	66.176
1590140000	42.68	52.286	58.788	104.085	103.598	93.034	101.513	86.316	81.308	83.735	67.897	80.120	93.504	86.359	80.265	69.624	69.009	60.398	51.455	45.707	105.350	93.190	86.410	81.214	85.239	118.000	100.786	86.299	132.419	101.205	116.479	66.509	57.807	44.184	55.955	65.951
1590180000	42.68	58.107	58.257	104.222	98.872	83.872	96.085	82.812	73.897	82.145	67.966	77.427	94.829	84.068	80.838	73.564	67.304	57.788	52.245	39.566	96.932	87.853	86.308	76.940	84.966	114.376	97.350	84.547	134.940	99.940	118.043	71.082	56.368	42.618	57.075	70.020
1620020000	43.00	53.661	63.381	100.650	103.051	85.701	99.487	81.812	75.085	81.402	71.724	81.598	94.479	93.299	81.350	79.205	70.217	64.257	55.545	42.475	97.667	92.802	91.077	77.726	94.615	118.957	107.607	84.735	137.350	99.803	126.043	67.773	56.526	49.184	61.806	71.078
1620060000	43.00	57.830	56.956	101.231	101.726	87.795	95.120	86.573	83.641	80.906	69.638	78.103	105.299	85.940	81.316	75.547	74.609	55.257	51.318	42.606	103.214	89.767	90.530	80.137	92.761	115.974	103.427	84.094	138.479	99.462	125.419	70.373	55.053	47.039	52.836	62.088
1620100000	43.00	54.179	56.805	102.188	100.564	85.983	100.547	82.274	75.162	80.359	71.121	79.128	94.111	88.265	80.547	77.282	64.087	55.726	50.373	39.525	104.453	89.586	93.915	74.094	86.966	114.504	97.462	84.376	135.607	96.897	120.581	65.500	59.377	45.026	62.000	75.637
1620140000	43.01	55.598	54.752	103.162	101.581	88.684	97.017	84.393	81.410	79.632	75.259	81.128	97.393	90.607	83.402	82.735	70.730	55.920	54.791	41.222	106.222	94.095	92.957	78.436	86.821	119.402	100.436	80.162	135.214	101.299	120.214	68.445	56.763	47.526	58.866	66.775
1620180000	43.01	57.429	62.885	105.709	103.573	88.077	98.957	82.256	78.009	78.632	70.948	83.444	98.376	90.897	83.145	81.103	73.817	60.018	51.755	43.475	103.128	94.241	88.940	78.795	80.846	121.880	100.949	81.479	137.513	100.684	115.120	66.818	57.000	48.566	61.269	69.578
1650020000	43.33	60.464	56.097	104.538	108.291	92.145	102.231	79.940	77.205	82.761	71.086	78.402	96.641	91.436	83.462	74.359	68.087	54.991	56.391	39.677	105.137	95.431	95.632	75.462	91.479	114.538	102.470	84.308	134.667	103.393	125.846	68.818	60.500	46.382	58.194	69.265
1650060000	43.33	56.866	54.540	102.726	101.897	83.726	102.752	82.436	81.983	82.162	76.966	75.897	101.350	89.017	83.453	78.000	69.383	54.381	48.945	39.131	107.402	91.776	88.812	79.291	88.333	114.573	99.632	86.316	138.444	102.368	119.752	69.891	58.088	45.829	60.970	65.696
1650100000	43.33	56.143	55.044	105.026	101.026	87.009	97.932	83.778	79.376	78.282	74.164	85.607	95.043	83.598	79.265	75.530	70.574	54.345	49.336	41.859	102.419	95.897	87.581	74.795	90.410	110.291	100.556	85.427	137.179	96.863	116.282	70.227	55.254	47.842	60.358	64.912
1650140000	43.33	57.723	55.761	102.137	103.829	86.487	100.923	82.889	74.256	87.419	75.483	80.564	98.410	92.615	85.957	78.812	67.270	55.920	54.282	41.333	102.308	97.172	93.111	76.376	88.573	115.504	98.026	83.120	130.350	103.573	111.812	71.109	53.553	52.355	53.642	67.020
1650180000	43.33	55.723	58.920	100.487	102.556	92.838	103.308	78.786	79.479	82.179	73.172	77.932	101.923	85.940	80.188	74.521	65.896	58.469	53.127	42.303	104.624	95.836	89.051	75.795	93.333	116.940	101.675	81.786	134.923	98.162	117.701	72.182	61.474	48.882	59.463	68.539
1680020000	43.65	57.125	57.319	105.350	106.333	88.641	101.838	86.966	79.974	84.436	73.922	78.692	98.983	89.590	79.453	80.222	65.304	60.752	56.109	39.505	101.162	91.216	96.786	77.231	90.778	120.752	101.795	87.547	135.462	104.692	119.316	76.291	56.430	48.934	57.194	66.373
1680060000	43.65	62.438	67.867	106.624	101.641	86.752	102.026	81.769	80.504	80.137	69.302	78.821	99.538	88.188	86.812	77.214	63.478	60.319	47.409	43.374	101.291	96.353	91.530	78.034	95.145	115.000	103.897	86.154	137.068	98.932	122.675	72.836	56.491	51.500	59.821	68.696
1680100000	43.65	59.991	62.425	106.154	100.282	87.590	95.085	85.368	75.795	85.205	70.905	85.829	101.778	86.547	80.547	72.675	67.800	55.956	54.909	44.051	98.829	86.905	92.256	79.282	86.880	115.026	105.231	86.855	132.556	96.778	120.829	65.191	55.219	45.697	55.433	67.039
1680140000	43.65	61.580	55.938	104.487	105.855	89.282	95.547	83.709	80.265	79.769	73.353	82.248	98.274	94.393	83.573	76.239	68.157	59.920	55.164	37.869	99.248	89.879	93.872	77.607	90.034	116.521	99.906	84.949	140.453	97.991	115.803	69.700	55.105	40.605	59.418	66.069
1680180000	43.65	56.875	58.664	105.564	100.051	90.598	101.513	83.752	79.342	80.615	74.078	81.786	98.863	88.154	83.479	73.966	65.774	60.124	51.327	46.980	102.265	94.422	93.068	77.231	94.043	115.650	100.359	82.026	138.385	99.889	121.897	65.536	65.289	44.224	63.104	65.382
1710020000	43.98	59.616	54.159	106.872	96.504	86.795	97.145	86.496	76.974	84.034	70.284	79.068	99.957	86.419	87.855	72.265	71.243	58.044	55.709	39.444	101.658	94.147	94.479	80.624	88.188	119.846	98.675	86.256	136.171	104.188	124.462	67.982	60.114	48.368	63.463	70.755
1710060000	43.98	58.491	59.876	109.248	97.744	86.128	102.709	81.641	79.581	87.222	71.759	78.897	99.641	88.812	84.308	79.060	63.574	56.655	56.536	41.040	93.957	95.819	91.009	78.350	87.137	120.675	108.231	83.957	139.103	99.333	117.111	72.445	56.175	44.579	63.552	70.284
1710100000	43.98	57.670	58.115	113.769	99.436	92.017	101.530	87.581	77.316	81.940	67.897	81.009	99.667	88.838	84.932	73.256	71.522	59.257	51.636	46.707	103.444	92.440	98.342	74.419	92.658	115.974	99.718	88.624	133.932	100.872	123.453	68.918	59.228	44.132	65.851	72.118
1710140000	43.98	57.080	59.071	110.444	98.256	90.658	100.265	81.838	81.239	82.564	68.741	74.692	100.906	92.675	83.111	73.197	63.183	55.513	50.755	41.909	105.145	92.388	92.017	75.940	92.658	118.094	98.692	89.368	143.154	101.043	121.940	74.173	59.149	46.026	68.672	69.098
1710180000	43.98	62.562	62.487	109.718	102.726	90.026	97.692	79.496	80.821	81.376	73.552	74.214	95.658	83.547	82.034	74.650	70.539	54.469	54.173	39.000	99.291	94.009	89.650	80.325	87.111	117.402	104.231	85.991	135.624	100.701	118.325	67.764	58.246	48.921	61.552	69.000
1740020000	44.32	59.223	58.460	104.735	97.940	86.632	98.197	87.761	80.709	82.556	73.405	79.846	99.171	91.103	88.718	73.291	66.243	57.088	57.618	45.212	100.889	91.198	97.957	83.795	91.128	117.179	101.239	88.547	138.966	103.060	118.077	70.191	61.316	46.447	60.955	67.059
1740060000	44.32	54.562	66.195	103.667	101.308	88.692	97.530	84.470	74.991	82.615	68.172	80.453	97.778	87.436	80.564	77.974	64.774	58.088	51.364	41.152	101.419	92.397	97.060	81.530	92.043	119.581	102.863	86.043	135.829	104.838	118.299	68.236	58.789	42.171	65.612	69.520
1740100000	44.32	58.000	56.336	104.598	102.145	90.342	99.128	80.239	75.462	86.333	76.328	81.068	98.957	86.256	83.111	83.308	65.661	59.850	53.055	44.788	99.137	93.422	86.453	78.855	88.419	117.419	108.624	88.128	137.684	102.128	124.906	71.309	58.816	42.026	66.343	66.598
1740140000	44.32	56.741	56.345	103.726	99.513	87.359	95.487	81.718	81.598	85.068	66.690	78.171	103.855	83.556	81.205	73.718	69.548	56.726	49.927	41.586	104.188	91.767	89.872	77.103	94.786	116.479	101.675	84.017	133.256	104.479	119.402	71.209	53.851	46.276	59.731	70.892
1740180000	44.32	54.821	54.814	99.983	100.701	89.291	99.376	82.658	73.957	81.812	69.267	80.726	102.650	87.821	86.154	78.744	67.443	55.699	54.000	46.687	104.137	97.759	95.915	74.128	90.308	118.051	98.350	84.778	135.171	97.504	124.222	70.036	58.877	41.434	60.627	64.912
1770020000	44.66	55.946	63.239	105.342	105.436	85.368	103.949	86.872	81.863	83.325	72.250	80.701	101.316	90.068	90.701	77.940	66.739	56.310	55.736	44.859	102.410	96.198	90.017	83.709	92.368	119.880	103.564	90.325	137.162	105.812	124.333	73.500	60.044	53.342	64.985	73.422
1770060000	44.67	58.562	60.681	102.359	95.359	92.769	100.897	81.863	76.812	77.966	79.353	79.872	95.333	89.154	80.940	80.128	67.200	56.071	52.718	41.182	101.761	89.172	93.171	81.444	90.581	117.248	103.838	88.034	138.179	97.880	114.564	70.564	54.158	45.921	66.269	65.216
1770100000	44.67	58.661	60.788	105.444	103.675	89.094	93.923	84.214	74.077	82.427	71.095	81.829	103.043	87.248	82.795	80.556	68.530	57.186	55.609	41.374	113.026	98.629	89.598	76.128	92.470	116.342	99.632	86.274	136.214	104.419	119.786	71.445	55.895	41.803	61.015	69.676
1770140000	44.67	57.580	62.088	105.376	97.940	88.350	97.376	82.444	82.316	82.564	74.379	80.179	98.684	90.692	88.068	76.821	65.609	59.956	51.600	38.030	103.556	95.026	93.188	77.385	91.521	121.530	92.444	92.222	139.590	100.957	123.974	74.518	56.895	45.487	65.358	66.735
1770180000	44.67	57.089	56.708	103.821	104.556	88.470	97.453	85.744	83.735	79.940	68.250	80.786	102.538	86.838	84.983	79.419	66.617	58.540	49.927	42.222	107.085	93.526	91.915	76.479	89.496	116.786	100.650	84.838	130.590	102.538	121.496	68.309	58.833	48.671	62.672	69.451
1800020000	45.01	54.134	61.947	104.607	99.889	88.009	103.983	85.752	79.094	81.812	76.698	77.667	95.838	91.726	86.778	79.803	63.930	60.504	58.373	43.808	103.171	96.431	96.726	81.077	88.991	123.325	106.333	96.325	142.154	111.316	124.282	68.718	55.430	55.158	64.493	68.814
1800060000	45.01	53.455	60.088	110.316	102.077	89.017	104.000	80.641	77.855	78.641	73.776	75.855	99.094	85.684	87.359	75.761	71.670	57.637	52.900	47.101	102.376	96.086	94.231	80.094	89.744	115.650	102.137	87.299	136.991	103.547	122.974	72.118	56.474	43.447	60.866	70.118
1800100000	45.01	62.268	56.018	107.726	99.761	86.872	99.838	87.684	76.521	85.444	70.414	81.214	96.590	90.436	88.521	76.308	65.643	61.504	53.873	41.838	100.205	99.302	95.487	81.487	89.282	118.812	102.256	92.248	143.727	104.803	121.667	70.636	58.781	47.605	62.985	70.882
1800140000	45.01	58.000	54.885	103.752	95.949	88.778	99.812	84.795	72.556	83.556	71.526	75.077	103.915	93.188	88.231	79.145	68.922	64.566	49.964	43.182	99.872	92.707	94.974	78.197	93.556	113.188	97.393	83.769	139.573	104.385	128.709	71.391	57.430	42.816	68.015	67.049
1800180000	45.01	60.830	65.283	103.231	99.829	88.821	100.846	85.308	78.470	82.521	72.138	84.051	101.188	93.299	84.709	75.000	61.513	61.274	53.845	40.717	101.530	92.422	92.453	79.214	90.009	122.880	101.282	88.043	139.051	105.017	119.128	68.173	60.044	46.697	62.567	65.843
1830020000	45.33	56.580	55.531	104.026	103.675	86.812	96.923	90.812	77.444	87.974	72.560	79.034	99.709	93.316	88.060	75.214	65.635	61.655	55.836	40.465	104.077	96.284	96.154	79.308	99.573	123.034	100.761	93.487	144.957	105.359	121.068	71.455	59.351	48.789	66.821	72.686
1830060000	45.33	53.741	61.965	101.718	107.265	84.521	101.846	87.735	80.402	87.410	72.198	83.154	99.368	90.444	83.778	80.581	66.730	64.124	51.827	41.667	105.128	99.759	95.410	81.239	96.795	119.641	104.761	95.248	144.940	106.607	124.744	69.636	59.079	48.263	67.597	68.471
1830100000	45.33	60.134	58.230	99.017	100.615	88.197	100.316	89.684	80.701	83.684	70.319	79.137	101.701	93.940	87.778	79.444	70.565	63.274	51.409	44.970	109.051	92.966	95.274	70.239	97.915	121.966	106.923	100.915	134.248	106.650	114.453	70.727	59.333	49.882	66.209	70.373
1830140000	45.33	54.562	60.115	109.632	98.000	83.359	102.462	80.239	80.855	84.658	68.940	78.855	103.179	87.402	92.162	78.632	68.078	54.487	56.291	44.556	109.205	94.793	90.128	77.427	94.291	123.325	99.427	91.778	139.462	103.256	116.940	69.700	57.298	48.500	70.104	71.010
1830180000	45.33	58.411	59.212	104.197	97.350	89.521	102.590	79.274	80.197	84.128	75.862	76.684	102.615	94.641	87.436	79.932	70.565	63.274	59.909	44.061	104.624	97.060	99.000	77.547	95.641	117.821	103.316	91.205	141.265	101.786	122.752	68.155	60.333	46.342	63.030	67.216
1860020000	45.67	56.866	62.460	109.615	99.897	90.291	103.214	81.342	78.889	83.256	73.983	81.179	108.761	94.171	87.744	79.667	64.965	58.982	54.673	43.869	105.590	95.448	95.983	84.778	89.009	127.624	104.692	100.239	140.658	101.838	126.120	71.391	56.474	49.395	69.000	71.431
1860060000	45.67	52.607	59.973	104.923	95.872	85.325	100.291	84.786	74.103	83.120	71.164	72.667	103.556	89.350	92.051	83.419	67.270	64.354	56.864	44.354	108.538	95.172	98.402	82.154	96.863	119.932	103.530	98.556	141.436	104.863	126.838	72.027	58.465	46.132	61.328	70.902
1860100000	45.67	55.116	55.124	100.812	98.667	88.145	97.402	85.205	74.222	84.906	69.060	73.154	105.838	91.325	86.222	73.547	70.000	60.673	55.409	43.495	103.513	97.543	97.966	77.846	93.880	127.897	100.444	94.350	140.778	108.726	124.256	70.891	54.816	45.474	59.269	67.961
1860140000	45.67	57.393	58.637	105.154	104.274	85.077	101.513	83.103	77.573	83.675	72.466	73.419	101.692	86.897	85.521	74.889	64.800	61.770	56.700	44.020	102.256	98.267	97.436	80.316	94.949	117.530	98.222	96.752	146.060	104.889	124.060	70.045	60.482	47.776	61.821	65.637
1860180000	45.67	61.223	61.602	103.855	99.462	83.453	99.248	84.068	77.504	82.393	77.388	79.154	105.060	85.068	90.726	76.316	64.800	61.257	51.036	42.687	104.162	94.293	99.966	82.940	94.650	123.205	99.239	96.684	141.564	104.017	118.051	69.973	56.763	45.066	68.164	67.059
1890020000	46.01	55.804	60.982	106.726	100.786	87.872	101.419	83.641	79.342	79.598	76.069	79.991	108.419	93.821	92.590	80.333	69.878	62.584	54.273	45.384	108.248	94.276	97.026	81.632	95.248	120.590	105.838	98.607	143.504	105.188	126.308	69.609	59.711	46.303	65.940	66.941
1890060000	46.01	59.125	55.425	105.786	98.726	87.513	97.983	84.333	81.256	84.923	74.940	80.222	101.496	89.692	92.564	77.556	67.313	57.044	55.155	46.071	103.624	94.293	99.376	74.547	95.154	124.709	101.709	102.761	143.795	108.179	124.880	75.173	57.719	47.355	66.313	65.284
1890100000	46.01	60.125	59.150	105.607	101.222	90.718	103.154	82.162	73.701	76.581	72.534	73.615	103.376	97.504	88.983	87.350	69.417	59.531	53.973	41.616	103.504	91.698	101.188	82.444	97.410	122.803	106.299	99.068	147.769	106.812	122.479	70.473	59.289	53.118	61.866	70.157
1890140000	46.02	57.000	59.770	102.291	104.308	94.231	104.504	88.915	77.513	86.385	74.940	78.410	102.470	91.009	86.419	77.829	68.513	57.531	50.455	45.051	106.889	93.302	99.239	77.162	97.359	121.444	99.726	93.786	141.385	106.513	124.598	71.091	54.386	51.039	60.045	65.578
1890180000	46.02	63.866	57.876	105.137	104.051	89.034	100.291	85.803	77.718	80.855	75.078	79.786	102.718	93.983	88.624	75.889	66.287	62.982	54.055	49.737	108.718	98.578	98.991	82.521	95.564	119.838	100.974	99.368	145.632	106.974	127.906	72.845	55.009	47.763	60.612	67.392
1920020000	46.34	59.143	61.673	107.248	103.248	91.761	105.547	83.214	81.145	82.231	73.328	76.846	104.239	94.906	84.932	82.932	64.991	62.575	53.000	44.424	109.402	93.353	99.991	77.983	98.983	125.744	104.333	104.906	146.197	112.043	124.735	71.882	63.614	50.105	64.597	68.500
1920060000	46.34	51.491	56.257	107.299	100.812	84.359	101.470	81.744	74.094	77.453	72.845	79.957	106.675	90.983	90.026	80.017	68.078	57.637	56.200	41.747	101.231	100.784	101.427	81.171	95.915	119.462	100.359	100.342	148.709	113.043	124.009	66.927	60.781	40.579	62.940	68.137
1920100000	46.34	57.411	57.690	109.855	106.632	88.299	103.077	87.906	74.692	78.487	69.190	72.761	103.000	94.701	90.299	82.974	67.009	58.106	57.236	44.727	106.145	95.431	108.214	84.239	96.521	121.915	104.111	101.821	142.111	105.923	122.957	69.418	59.947	45.408	60.179	64.873
1920140000	46.34	54.696	58.009	104.350	102.786	87.795	95.658	87.444	73.043	78.556	69.017	78.256	98.239	91.068	96.615	81.923	72.687	52.265	49.536	40.838	104.197	96.724	100.103	86.291	93.658	122.162	100.274	97.256	144.778	106.479	122.615	70.218	58.465	45.447	64.985	67.941
1920180000	46.34	57.848	62.133	109.829	107.376	90.051	102.171	82.487	79.547	80.991	69.655	78.077	108.043	93.453	93.222	81.923	74.183	58.540	57.518	45.061	112.786	99.483	98.111	76.162	96.291	117.632	100.966	100.094	143.821	107.915	126.333	73.055	60.895	47.855	62.119	67.216
1950020000	46.67	63.911	60.912	110.077	106.128	92.017	105.487	82.547	76.889	87.650	75.371	79.231	112.009	93.060	95.026	82.675	72.209	63.230	59.900	44.424	112.299	104.836	108.308	81.778	97.872	124.145	104.991	107.085	140.162	106.043	127.504	73.118	60.974	50.118	65.179	72.735
1950060000	46.67	55.616	62.035	112.769	103.556	86.940	106.744	86.419	82.726	83.376	63.948	74.709	106.051	93.077	92.222	76.504	66.235	58.097	53.864	47.273	105.991	97.776	102.701	79.282	96.402	124.778	104.906	104.231	146.308	108.188	128.949	69.455	59.974	51.921	64.343	64.431
1950100000	46.68	60.196	59.115	116.504	104.479	88.632	104.479	79.128	81.573	79.803	69.388	74.709	103.538	92.145	93.274	78.581	67.617	59.221	49.400	41.727	108.983	90.353	102.812	80.265	99.761	127.897	104.564	102.684	148.350	109.855	130.197	71.264	65.500	51.855	56.045	69.961
1950140000	46.68	54.357	59.876	108.291	105.615	93.043	99.094	86.085	82.530	78.479	72.086	77.573	102.513	91.846	90.709	85.513	69.652	63.221	57.109	48.687	103.821	92.500	107.504	81.017	94.154	128.009	101.111	105.256	141.940	109.479	126.974	74.436	65.421	47.921	65.343	64.510
1950180000	46.68	58.714	61.938	115.128	105.171	89.026	102.103	90.966	84.966	82.154	70.983	72.880	105.470	91.120	89.359	82.137	69.391	63.956	54.073	44.747	99.940	95.603	106.863	79.692	100.154	122.205	105.197	102.368	149.316	109.419	131.513	70.364	63.018	50.355	62.507	66.814
1980020000	47.01	62.580	56.841	110.897	108.983	93.017	104.111	89.590	80.410	84.077	74.302	75.906	110.128	95.017	94.043	79.906	66.722	62.575	51.682	46.263	109.846	101.284	107.282	81.872	101.675	132.342	105.162	106.487	147.462	111.983	136.299	73.645	68.096	45.776	66.299	65.529
1980060000	47.02	60.777	57.478	112.547	105.675	96.179	104.889	81.496	81.256	87.205	74.060	74.103	107.838	96.214	98.957	84.316	73.443	62.823	54.891	49.909	110.077	94.853	100.795	85.923	106.291	129.248	99.026	110.829	145.872	113.291	126.504	76.818	65.579	49.829	64.000	67.431
1980100000	47.02	61.295	66.186	113.496	110.846	99.222	106.043	90.581	83.581	85.821	72.500	83.043	109.812	98.701	95.256	78.940	70.139	57.770	53.645	47.111	107.179	94.793	105.120	78.974	106.197	123.590	103.214	109.615	153.940	112.872	127.179	77.527	63.623	54.961	64.731	71.765
1980140000	47.02	57.982	62.903	116.393	109.068	97.111	101.009	81.863	85.034	88.299	72.491	75.889	107.983	94.248	96.333	82.752	69.991	61.283	53.627	41.081	112.376	95.897	105.342	81.897	102.632	127.889	101.077	104.838	152.051	117.889	126.094	74.136	62.807	47.658	64.866	72.608
1980180000	47.02	56.170	56.327	112.940	107.393	92.342	104.846	82.709	81.752	82.513	70.526	77.581	105.496	95.017	95.051	79.000	65.409	57.177	52.227	42.455	106.470	94.862	105.308	86.154	101.256	126.957	94.154	106.453	146.145	107.624	124.342	69.782	58.605	43.645	62.418	68.265
2010020000	47.33	62.812	62.540	122.709	115.000	99.060	107.325	88.624	82.769	80.923	69.897	80.094	109.120	100.932	101.051	82.197	65.548	62.690	54.955	47.010	107.197	92.879	112.607	85.248	106.513	126.692	104.675	108.094	152.197	115.043	127.128	76.727	59.421	52.737	61.970	67.745
2010060000	47.33	61.848	57.735	117.880	115.154	101.795	106.684	84.299	84.291	85.291	73.431	80.803	110.308	93.325	100.752	75.325	64.574	59.292	54.673	43.323	106.752	98.310	111.915	80.684	104.949	132.316	101.256	110.444	148.880	112.444	131.410	72.764	62.237	50.763	59.866	72.951
2010100000	47.33	58.491	60.319	120.940	112.752	98.650	103.470	80.333	82.675	89.393	70.828	78.342	112.393	100.786	98.154	82.231	69.348	62.336	48.173	46.747	112.274	91.905	108.684	79.778	106.068	134.744	103.556	108.060	152.145	113.085	133.983	78.536	64.404	52.474	61.642	71.853
2010140000	47.33	56.000	61.496	124.248	115.470	96.419	103.017	85.085	87.641	86.761	75.078	79.308	114.128	98.504	97.923	81.684	66.035	57.009	49.873	44.242	109.966	93.362	112.675	83.667	106.487	136.581	102.419	112.094	152.256	110.718	128.897	74.800	66.377	52.421	63.522	75.598
2010180000	47.33	55.312	62.389	119.000	113.556	94.692	109.077	85.949	83.718	86.915	71.086	75.154	111.368	97.179	99.556	81.641	69.200	60.195	50.945	44.485	111.615	94.560	107.581	80.923	102.504	133.299	105.154	112.000	150.060	113.880	131.718	75.936	64.895	49.237	64.119	69.539
2040020000	47.67	64.759	59.407	126.214	120.444	102.923	101.385	82.453	86.077	86.590	78.759	76.855	107.752	98.709	99.923	81.769	66.009	61.239	60.455	40.828	110.880	100.888	116.607	81.376	109.162	138.632	108.197	115.803	151.350	114.504	128.085	72.027	62.842	52.658	61.701	70.824
2040060000	47.67	60.652	62.398	120.726	119.094	96.906	100.487	86.547	82.444	86.188	69.793	80.051	113.556	98.427	101.803	83.265	71.835	61.885	52.973	45.778	114.701	100.690	118.402	82.368	112.359	135.521	106.043	112.590	145.333	118.462	130.889	68.918	63.807	47.237	64.284	68.137
2040100000	47.67	54.705	62.035	121.427	122.658	97.641	102.641	84.094	83.077	92.017	75.405	81.368	113.282	98.504	106.718	78.419	64.896	67.920	53.218	50.091	115.667	98.422	112.487	83.684	107.983	133.308	106.974	111.274	153.085	125.846	129.060	73.745	57.789	45.500	63.940	67.765
2040140000	47.67	59.125	59.336	123.786	119.291	99.333	109.410	83.103	86.803	87.376	72.112	85.803	110.060	97.615	101.564	76.983	65.783	60.363	56.864	43.859	111.145	98.405	109.350	87.863	102.897	130.111	106.479	114.368	147.145	115.795	130.778	75.582	63.526	45.461	59.955	71.775
2040180000	47.67	59.571	62.646	122.034	124.128	102.513	103.650	87.444	80.709	84.137	72.336	78.692	114.197	99.726	102.043	80.274	63.496	63.133	58.909	46.263	112.444	100.302	111.316	83.564	108.573	132.530	108.974	111.974	146.735	115.368	129.701	70.582	64.833	42.987	61.657	75.333
2070020000	48.02	60.143	60.159	127.282	125.427	104.231	104.675	87.957	85.462	95.274	70.828	84.282	112.521	100.940	113.265	81.795	71.174	60.558	52.927	41.384	111.171	99.853	114.342	88.880	110.291	150.615	109.624	122.145	149.085	122.077	136.009	73.564	66.518	50.724	66.104	72.686
2070060000	48.02	56.616	61.717	120.650	129.983	103.359	106.427	86.966	87.744	94.821	76.147	81.453	110.051	100.462	112.462	82.291	68.400	52.973	55.718	51.071	112.479	98.267	118.231	88.940	115.316	140.795	106.872	121.906	150.727	118.821	129.744	75.573	61.667	54.421	68.179	75.373
2070100000	48.02	57.652	61.221	128.761	128.504	102.342	104.436	85.000	85.726	92.342	71.060	80.060	110.427	103.846	102.145	74.786	62.287	63.673	56.345	45.364	116.051	94.888	117.872	88.120	111.222	146.487	108.795	113.915	146.615	119.419	128.624	69.764	66.281	50.763	66.851	76.000
2070140000	48.02	61.643	67.159	123.940	122.846	97.803	108.607	85.128	87.744	86.735	71.371	79.761	117.154	94.897	108.991	81.120	69.157	59.212	53.991	40.929	105.162	98.940	114.846	91.299	106.453	146.393	107.556	116.795	147.282	121.197	138.239	75.936	63.088	51.803	68.418	70.196
2070180000	48.02	57.830	63.805	130.821	124.821	108.744	108.504	86.564	91.786	93.667	71.267	83.855	117.598	98.282	108.222	87.752	67.730	61.257	50.400	42.919	114.222	99.940	114.487	87.137	108.880	142.974	107.496	116.667	152.863	125.393	135.573	72.809	65.754	49.026	66.537	71.294
2100020000	48.35	61.670	64.664	128.402	132.197	108.556	101.795	87.265	85.513	97.521	78.069	83.812	113.274	104.624	113.692	85.897	65.835	64.035	55.227	44.020	110.889	104.043	118.821	94.026	110.479	151.744	111.137	120.709	145.846	129.085	140.957	75.900	65.018	60.408	66.119	71.667
2100060000	48.35	59.080	63.257	126.291	126.897	109.009	107.735	83.145	88.282	98.402	73.138	84.496	114.974	101.470	116.179	81.513	70.757	54.053	59.018	39.747	109.214	99.233	118.513	95.479	112.444	152.402	109.111	124.043	154.154	121.547	130.838	78.336	63.877	49.474	66.328	70.363
2100100000	48.35	61.393	68.248	128.248	131.991	111.949	107.769	94.026	88.231	95.359	71.802	84.068	117.667	98.419	114.470	91.145	73.174	62.478	56.464	43.141	116.521	103.922	119.778	92.692	108.068	152.427	110.564	125.821	151.171	120.915	130.436	76.618	63.219	56.961	60.970	63.255
2100140000	48.35	64.330	64.363	123.393	130.974	112.897	109.487	89.538	90.325	89.949	69.560	78.983	108.359	97.829	112.761	81.786	67.713	57.894	52.245	40.960	114.778	99.853	115.889	97.547	114.137	152.513	106.265	125.051	152.897	123.120	134.359	70.173	69.579	61.276	62.881	68.990
2100180000	48.35	58.911	63.310	127.607	125.043	105.880	104.111	80.504	91.017	98.607	74.690	77.598	116.855	98.051	109.444	84.949	69.217	60.726	50.518	43.535	110.940	102.353	117.752	90.248	110.479	149.915	107.726	125.530	149.940	124.436	134.316	72.127	61.044	51.566	70.015	74.784
2130020000	48.68	56.089	61.903	131.496	127.034	109.111	106.077	84.154	88.718	102.214	69.328	84.598	119.239	101.556	119.171	91.829	73.817	64.345	55.318	42.505	112.274	111.871	128.034	96.624	115.786	155.350	111.966	130.957	158.932	132.598	139.795	76.073	64.035	55.066	65.030	72.402
2130060000	48.68	62.688	64.743	123.889	128.778	109.598	108.632	89.376	90.752	99.316	74.103	88.410	116.393	106.846	117.701	92.197	71.878	57.469	57.555	45.697	112.735	105.112	122.641	92.667	112.316	161.581	111.120	125.154	158.615	133.410	138.607	73.791	69.053	53.079	66.134	78.853
2130100000	48.68	58.366	66.637	134.547	131.974	108.051	107.795	87.513	95.949	103.034	77.095	81.615	115.256	100.521	114.795	88.068	70.591	57.425	61.636	43.333	115.556	103.164	128.222	95.026	113.444	156.376	113.436	129.145	159.239	129.769	135.017	77.273	67.193	56.737	64.716	71.951
2130140000	48.68	62.571	60.044	125.991	133.043	108.521	109.291	86.812	96.889	97.051	78.448	83.650	118.085	109.231	113.521	88.291	73.635	59.372	56.264	45.808	119.915	106.319	127.632	92.786	116.632	156.701	111.556	135.427	154.521	130.709	131.795	75.564	67.667	60.224	61.791	74.412
2130180000	48.69	58.366	65.858	129.590	132.239	106.350	112.222	89.812	97.718	104.068	72.457	80.872	117.949	104.744	116.453	89.299	71.061	58.469	61.300	45.030	115.231	103.543	127.735	96.197	114.342	155.624	112.188	128.632	155.368	128.803	136.359	75.055	68.807	60.066	66.522	70.098
2160020000	49.01	55.500	61.407	130.419	134.222	107.932	108.538	91.436	96.453	105.744	80.422	90.427	116.932	104.444	116.453	90.923	85.574	57.460	55.918	46.273	117.735	104.509	131.094	96.735	119.419	173.197	122.333	141.427	159.538	143.641	141.556	74.855	63.807	53.132	65.925	79.686
2160060000	49.01	64.795	66.531	129.333	132.171	111.034	110.120	83.179	97.949	103.385	73.776	88.957	121.624	105.718	116.427	89.436	79.522	57.991	55.264	40.545	119.436	109.534	121.932	98.393	119.103	164.632	111.051	142.590	158.940	142.658	137.453	71.682	68.816	50.921	63.119	70.814
2160100000	49.01	58.304	66.292	131.385	137.385	113.410	106.598	86.974	102.068	105.897	76.224	91.000	116.496	107.265	116.009	89.419	72.113	61.504	57.882	40.768	116.932	106.828	125.470	99.239	110.222	165.205	113.333	135.829	158.017	147.615	142.624	75.882	69.219	61.053	71.179	74.294
2160140000	49.01	64.018	62.549	125.308	135.966	113.607	108.880	88.111	98.701	103.915	75.784	83.402	120.479	108.838	114.068	89.701	70.583	63.593	57.436	39.394	117.513	111.474	131.581	96.222	115.034	163.299	112.915	140.556	158.684	141.453	141.641	72.082	68.088	59.434	69.045	74.078
2160180000	49.01	58.821	70.301	135.983	130.444	108.256	110.487	87.949	95.658	106.188	75.828	86.692	123.684	103.991	111.778	89.949	72.339	60.602	57.009	37.626	115.821	112.474	125.906	95.598	114.197	158.650	117.983	135.145	159.829	137.581	140.692	71.500	59.237	54.961	67.985	77.510
2190020000	49.35	62.518	66.469	131.735	134.145	120.974	109.222	88.120	104.282	115.248	73.862	91.077	127.675	106.538	122.803	99.769	76.443	63.708	60.964	43.515	125.393	107.948	138.906	98.855	122.615	177.752	124.128	146.915	163.222	152.641	145.265	71.291	71.772	57.776	66.448	74.784
2190060000	49.35	60.679	65.814	128.179	142.991	110.795	106.479	88.624	101.684	111.564	71.690	89.778	121.419	109.265	115.154	94.444	77.765	65.451	60.509	43.929	122.496	114.741	134.470	101.026	116.915	174.368	117.470	144.222	157.991	152.744	141.556	70.336	65.930	61.908	69.672	67.324
2190100000	49.35	66.268	62.469	136.342	137.983	120.829	109.521	89.906	112.282	106.547	77.500	88.718	124.026	105.650	116.060	98.325	81.391	64.009	59.673	45.313	123.000	109.095	133.462	103.641	115.598	177.444	125.538	141.778	156.889	150.838	139.103	74.936	71.386	66.987	65.433	78.020
2190140000	49.35	59.634	57.717	132.299	137.991	118.658	112.060	87.017	107.573	113.427	80.414	93.607	122.769	103.496	120.051	93.299	74.374	63.496	60.673	44.990	120.291	110.172	130.162	100.872	123.350	173.991	126.974	144.325	156.299	155.051	148.017	73.145	68.088	60.789	62.985	75.363
2190180000	49.35	57.491	64.938	132.462	141.538	112.855	110.197	96.581	102.496	110.530	77.681	85.906	122.256	108.991	114.547	94.436	79.565	64.150	59.182	47.162	118.974	105.293	135.701	104.436	119.043	174.863	126.949	147.000	156.402	156.692	139.846	73.018	70.035	62.618	62.164	74.990
2220020000	49.68	64.598	62.257	134.179	140.538	120.556	110.291	90.085	107.684	118.786	83.948	90.564	127.034	104.812	117.308	99.709	82.887	66.708	58.973	44.545	118.359	114.095	144.880	108.615	117.043	190.521	134.316	150.197	164.615	163.727	152.624	74.073	70.009	68.092	64.433	73.539
2220060000	49.68	61.161	60.398	137.085	138.974	116.991	113.333	90.487	111.803	122.333	86.431	93.795	128.641	107.897	123.137	99.513	82.522	66.646	59.345	46.535	125.641	118.750	137.923	112.470	118.880	184.735	134.632	156.154	165.179	165.675	150.872	77.309	68.149	62.605	71.000	70.667
2220100000	49.69	62.705	68.602	132.299	145.667	115.786	116.017	94.385	107.051	118.085	80.190	96.949	130.393	111.726	122.786	102.838	80.052	62.531	61.627	48.677	119.171	123.371	148.017	109.803	124.838	185.291	133.214	153.974	163.504	168.273	149.068	74.564	70.877	64.750	66.716	72.373
2220140000	49.69	62.223	58.204	132.068	139.017	117.598	112.077	93.573	108.419	111.376	80.405	96.573	124.966	111.333	117.915	93.761	79.757	61.681	58.027	46.465	115.889	114.284	141.675	113.564	128.000	177.436	130.051	147.846	162.709	162.444	148.573	73.209	70.491	59.145	70.104	71.833
2220180000	49.69	60.527	66.814	137.051	139.308	119.009	106.573	95.274	105.521	120.983	82.509	92.487	130.983	112.667	120.462	100.991	74.304	61.850	62.509	37.394	117.573	119.379	146.077	106.342	121.350	182.385	134.256	146.863	164.761	163.855	153.342	74.100	70.807	60.395	60.955	72.971
2250020000	50.02	62.625	63.239	145.197	142.684	121.872	110.342	99.812	120.855	124.231	81.836	102.487	129.521	109.795	124.581	103.239	87.174	69.009	57.591	52.273	123.137	126.379	142.590	114.530	119.735	193.333	141.769	163.709	177.556	175.333	155.709	79.436	71.614	60.750	56.403	76.422
2250060000	50.02	64.420	67.540	138.205	142.530	114.692	109.573	99.624	115.538	126.051	86.000	97.359	131.137	112.171	118.504	101.350	83.470	63.956	60.464	44.465	114.632	124.931	153.658	114.735	124.410	193.641	145.359	160.205	165.709	185.000	159.094	76.000	67.386	65.434	62.433	75.608
2250100000	50.02	64.161	62.867	140.333	143.547	117.718	107.701	95.026	117.342	129.128	81.224	96.162	133.162	108.598	123.009	104.128	82.017	63.982	58.745	44.929	125.077	126.483	143.299	110.359	120.795	196.316	138.239	156.769	171.513	179.829	159.846	73.109	72.211	66.447	60.731	70.353
2250140000	50.02	64.562	65.168	134.778	145.778	121.359	112.735	95.402	113.436	124.051	88.440	99.684	132.299	115.496	122.949	99.368	81.270	66.504	57.545	47.697	121.034	125.043	147.034	114.017	123.470	195.171	142.197	163.744	169.590	178.829	158.479	74.091	65.649	67.737	61.657	76.039
2250180000	50.02	58.045	61.434	140.026	143.932	118.359	105.068	93.214	112.590	126.538	87.147	98.718	132.855	113.889	121.034	102.060	84.539	67.593	60.473	41.384	121.863	125.586	146.359	114.239	117.650	197.291	141.752	158.256	173.632	180.205	160.727	74.018	70.772	63.605	57.119	75.206
2280020000	50.36	67.000	61.265	138.727	147.162	118.667	107.829	96.726	128.017	132.103	91.336	100.385	127.940	113.949	122.385	105.368	91.409	66.628	55.509	46.828	126.444	131.845	147.094	125.786	126.214	206.504	151.188	170.504	183.026	192.855	166.812	75.709	73.623	58.711	58.194	77.353
2280060000	50.36	66.812	68.381	140.137	150.265	124.325	107.214	94.179	121.590	129.932	83.052	98.154	130.009	106.265	125.325	106.624	86.183	67.504	58.164	43.232	125.444	129.741	150.675	121.778	122.915	194.838	145.342	171.111	181.709	189.949	169.214	70.318	66.711	65.000	67.881	74.980
2280100000	50.36	63.884	60.451	135.470	151.889	122.581	107.607	96.385	124.171	132.590	87.526	95.889	131.701	107.974	125.615	104.872	88.096	65.177	60.218	43.859	130.128	125.009	149.214	126.154	128.521	198.573	155.940	169.009	181.256	189.359	163.752	72.736	73.965	63.105	66.119	74.059
2280140000	50.36	66.955	62.097	137.632	145.803	116.462	103.949	99.248	124.581	133.761	86.181	103.556	132.239	121.769	121.624	105.564	91.130	66.150	64.427	44.848	132.162	133.267	152.034	122.120	126.778	202.949	150.402	169.427	186.556	196.325	167.974	76.191	71.781	63.921	67.164	68.343
2280180000	50.37	62.464	59.319	141.103	149.923	123.872	109.983	100.872	123.897	134.427	85.276	101.256	125.530	112.803	123.350	104.803	87.948	63.894	57.455	45.040	130.137	127.543	149.085	124.632	131.308	203.368	149.812	171.017	183.915	193.752	168.444	74.818	72.193	66.776	62.672	75.392
2310020000	50.70	65.598	61.451	144.188	157.436	126.778	112.735	106.171	126.590	145.769	92.698	107.641	139.863	119.744	129.530	113.265	90.183	69.885	64.100	45.081	129.906	140.000	160.273	129.727	131.496	198.590	166.111	182.556	191.188	214.162	178.085	72.182	66.018	64.316	62.045	73.480
2310060000	50.70	63.812	63.354	144.966	154.991	126.205	111.513	97.991	132.692	140.436	96.922	101.718	134.684	117.658	124.034	110.231	92.835	67.248	65.900	43.737	129.162	139.216	147.641	134.718	130.222	201.607	165.179	176.197	204.812	205.675	184.803	75.027	69.570	68.974	59.507	77.098
2310100000	50.70	63.884	64.381	141.547	158.077	130.094	108.299	99.897	127.974	143.359	95.422	104.214	138.479	119.573	129.974	111.855	88.070	71.735	64.691	46.606	129.393	142.466	151.650	133.701	128.872	210.051	166.547	180.863	197.556	210.316	179.282	79.500	74.816	73.197	68.269	74.284
2310140000	50.70	63.509	66.416	141.786	149.530	121.359	114.701	100.821	134.641	140.846	91.121	109.359	137.325	122.154	128.538	114.855	91.496	68.920	58.245	45.768	129.265	139.267	156.282	129.735	128.727	201.291	158.872	179.889	200.103	210.145	172.641	78.455	70.754	67.645	65.881	74.853
2310180000	50.70	64.312	65.956	143.727	151.273	125.513	106.974	106.803	131.658	147.179	90.371	105.983	134.590	118.855	129.538	107.111	92.443	67.115	60.309	43.626	128.675	142.828	155.590	127.974	132.265	203.111	167.615	183.590	199.915	214.923	175.778	78.145	69.439	67.211	63.537	73.696
2340020000	51.03	62.429	71.735	147.897	155.368	122.752	116.359	106.846	140.709	145.880	103.216	114.641	136.487	123.274	132.171	119.274	102.078	77.097	61.373	49.313	135.402	151.733	162.615	141.957	143.017	199.838	179.325	197.957	203.974	227.786	190.470	79.327	76.404	67.039	67.403	79.667
2340060000	51.04	67.536	72.195	148.761	158.333	132.427	123.188	104.632	131.231	153.632	94.198	108.034	141.863	117.274	136.607	115.444	99.783	71.894	61.809	44.586	128.470	141.086	154.171	136.915	133.513	197.812	179.273	189.513	206.333	231.222	189.496	81.236	75.895	69.382	65.418	77.873
2340100000	51.04	64.134	65.690	146.974	156.205	131.462	117.248	110.427	141.923	154.957	103.526	108.855	143.692	120.222	131.479	116.256	94.817	76.681	59.009	48.232	135.615	139.543	160.803	139.829	138.846	201.727	176.624	191.607	209.179	223.897	186.846	79.591	78.114	70.829	62.672	80.863
2340140000	51.04	67.652	66.549	145.308	156.581	136.487	112.863	99.932	132.316	156.128	94.578	109.000	140.479	117.821	137.675	119.923	94.617	72.301	55.082	43.424	133.581	144.871	158.376	138.162	136.530	198.598	182.872	196.957	214.043	222.735	189.350	76.927	71.456	74.026	72.463	72.961
2340180000	51.04	63.723	64.416	145.957	159.829	130.333	115.812	106.179	134.350	154.051	99.172	110.342	139.991	122.103	139.667	115.632	98.835	77.062	61.864	46.556	132.829	142.638	164.145	142.009	134.479	202.479	177.077	191.214	203.376	227.265	185.068	74.255	82.096	70.303	66.030	77.461
2370020000	51.36	72.339	64.549	151.496	159.137	136.983	116.581	112.077	146.504	164.453	110.655	119.368	145.282	125.162	138.120	126.692	105.530	80.265	61.182	50.202	135.077	151.198	168.829	151.496	144.752	199.752	193.256	199.513	222.547	239.060	199.761	83.182	81.482	70.092	70.284	83.510
2370060000	51.36	63.705	66.159	157.393	159.897	130.966	115.607	110.316	142.504	165.487	103.672	120.863	141.795	117.573	137.316	124.966	104.165	76.637	69.027	45.040	138.974	151.569	160.761	146.966	142.188	199.718	187.556	194.983	220.419	233.350	199.197	82.709	76.272	72.934	64.149	84.225
2370100000	51.36	64.482	73.903	156.547	165.103	136.863	113.171	108.735	145.026	157.932	98.957	112.957	145.410	117.427	137.752	127.692	102.243	76.168	64.245	45.475	141.299	147.181	160.436	145.744	147.385	200.590	199.034	200.923	219.504	232.068	201.675	82.709	81.632	74.776	63.000	81.000
2370140000	51.36	69.884	70.717	150.718	163.727	133.701	114.915	110.598	141.735	166.385	104.707	118.282	146.273	123.607	137.718	115.744	104.843	77.788	60.127	42.374	139.308	149.353	165.479	146.376	149.556	194.598	193.615	191.325	218.060	233.410	199.120	81.055	80.386	69.039	64.045	86.255
2370180000	51.36	68.321	74.708	159.291	163.205	135.684	109.556	108.342	139.214	165.880	105.474	121.299	145.795	125.872	134.504	123.769	102.922	73.965	66.045	43.626	134.299	147.966	164.607	144.359	144.897	201.778	192.427	187.684	227.436	239.803	199.103	83.255	80.123	69.987	62.343	83.490
2400020000	51.70	70.955	74.009	164.538	176.838	153.171	116.846	119.923	152.496	172.863	107.500	126.641	141.846	124.496	141.701	126.761	107.930	81.956	68.045	46.101	146.496	154.638	174.214	159.650	157.983	215.171	207.419	201.137	233.291	250.769	224.607	81.373	78.947	81.539	65.328	83.020
2400060000	51.70	71.107	74.053	164.111	172.812	150.863	110.308	112.248	155.154	173.658	107.595	123.803	141.752	120.581	138.436	129.761	104.009	87.212	67.782	46.818	149.188	155.086	177.308	156.675	159.735	208.282	212.598	197.949	233.154	242.598	214.085	87.782	80.868	77.211	61.552	82.284
2400100000	51.70	77.330	70.168	163.487	168.222	151.675	113.402	118.795	151.838	172.598	111.922	129.632	146.137	123.496	136.598	130.590	109.443	84.009	70.427	47.697	149.214	156.267	169.085	159.171	157.154	207.940	209.974	198.308	236.479	240.068	223.538	83.873	80.439	80.645	61.433	82.794
2400140000	51.70	67.884	69.920	168.273	177.291	156.137	113.829	116.684	157.812	173.812	109.017	125.350	145.675	127.821	135.521	127.838	101.757	81.823	64.564	42.960	142.137	157.638	168.197	158.598	151.513	215.034	211.556	201.521	235.692	240.547	222.444	82.673	78.772	72.316	71.343	86.951
2400180000	51.70	78.750	71.619	159.470	174.179	155.504	114.855	117.701	162.521	171.761	113.914	127.265	148.342	123.821	139.197	126.581	106.591	79.150	66.400	48.505	142.273	159.569	168.359	160.803	155.718	216.419	212.658	205.308	229.231	244.333	224.308	80.109	85.000	77.329	67.104	87.422
2430020000	52.04	75.348	68.540	182.453	181.316	159.000	114.675	122.769	161.786	179.658	121.310	139.137	151.060	125.111	141.598	138.735	109.478	81.788	70.409	46.162	142.444	162.483	182.872	170.538	161.829	217.393	219.744	208.026	254.256	245.103	236.632	83.164	84.088	79.934	62.761	92.127
2430060000	52.04	76.179	75.681	187.359	183.846	161.966	112.222	127.000	163.231	182.513	119.336	142.632	152.145	123.350	142.846	137.043	115.522	82.239	71.082	48.020	148.521	166.897	178.231	174.462	168.821	222.325	223.145	211.410	253.470	243.385	230.427	82.691	81.921	76.526	64.731	83.422
2430100000	52.04	73.759	70.363	178.273	185.966	162.299	110.855	126.803	159.333	181.949	119.440	131.444	144.786	128.974	138.325	132.658	115.835	80.982	67.227	46.000	139.684	167.836	176.684	169.128	166.239	221.368	215.812	213.752	253.051	245.350	233.538	87.355	81.386	80.421	65.567	88.343
2430140000	52.04	75.562	78.743	173.017	180.701	163.359	115.795	132.932	163.265	174.615	124.621	134.556	149.043	121.667	142.085	132.427	111.122	83.372	66.782	47.465	148.462	169.862	175.735	167.325	173.444	224.487	214.282	207.761	259.111	248.462	229.940	87.800	86.746	83.368	60.433	84.833
2430180000	52.04	75.134	75.531	178.966	177.974	161.077	116.436	130.641	155.786	182.034	118.112	128.846	152.308	125.752	138.658	131.462	114.896	85.876	69.427	50.869	144.179	166.078	179.966	164.171	169.487	225.932	218.094	211.128	252.239	251.077	238.829	85.018	85.816	78.474	66.851	93.235
2460020000	52.36	79.107	81.257	199.188	191.530	175.778	119.137	142.607	177.393	189.803	128.879	150.504	154.650	130.376	133.521	136.299	117.452	87.274	74.718	49.606	152.906	177.224	184.701	176.462	178.359	240.273	231.727	207.829	264.761	248.034	252.009	98.545	83.649	83.395	66.463	96.127
2460060000	52.36	75.330	77.434	192.855	190.718	170.171	116.043	136.915	176.256	188.034	124.879	146.786	154.265	129.085	138.077	143.077	113.722	88.522	82.264	46.030	147.897	172.172	184.709	181.812	172.333	236.658	229.085	207.701	265.872	244.632	252.991	93.091	83.447	78.921	63.045	99.206
2460100000	52.36	82.259	78.504	197.470	188.333	176.145	121.701	136.974	173.120	186.248	123.621	144.128	153.162	129.940	137.393	135.778	121.626	90.796	71.109	46.929	150.923	175.009	182.342	184.462	176.872	242.308	238.077	208.043	265.923	247.419	254.906	97.073	81.544	86.382	64.134	91.765
2460140000	52.36	77.179	81.699	197.556	191.556	170.231	115.453	136.316	178.829	188.872	121.483	150.273	146.658	125.744	144.462	141.735	120.017	90.133	69.645	45.525	149.350	173.379	183.325	182.017	176.103	233.632	231.333	202.915	265.795	243.547	248.949	95.482	85.351	83.342	66.910	97.765
2460180000	52.36	81.339	77.655	202.513	194.368	173.462	118.111	141.564	171.983	193.359	127.216	146.171	157.068	126.957	143.248	138.966	121.583	88.735	70.964	43.808	150.718	175.207	176.479	177.171	182.880	235.538	233.462	207.752	268.000	245.846	253.667	91.782	86.105	80.026	69.493	96.912
2490020000	52.69	82.375	82.398	208.410	205.034	184.863	127.863	153.581	191.812	200.282	131.293	152.872	157.231	130.427	134.162	155.479	122.887	95.681	78.891	46.293	155.675	176.957	187.188	184.137	179.744	252.214	243.359	210.393	287.205	251.752	269.915	101.809	83.000	91.132	71.149	98.892
2490060000	52.69	82.214	77.549	210.462	203.607	182.120	125.470	149.265	186.393	204.376	143.284	151.769	159.017	130.735	145.530	154.154	127.017	96.991	73.727	45.646	147.880	185.121	196.556	182.906	181.299	258.291	235.538	208.111	282.803	251.650	261.120	89.082	83.930	86.908	66.806	101.853
2490100000	52.69	88.938	75.442	202.991	202.692	183.026	125.803	147.043	186.752	198.658	138.595	155.085	150.675	137.111	139.880	154.000	121.383	94.655	76.709	48.384	156.068	180.655	188.744	177.538	185.829	255.795	236.111	211.179	282.521	249.769	261.940	98.582	89.886	88.934	68.060	100.853
2490140000	52.69	76.661	79.531	212.744	206.846	174.641	124.829	149.795	184.231	203.068	133.371	154.556	158.154	131.410	141.111	148.744	113.470	95.354	77.255	48.485	152.949	178.138	192.590	178.111	178.342	252.214	229.880	207.128	285.538	251.085	263.538	94.300	83.298	87.132	68.418	99.186
2490180000	52.69	81.000	81.115	211.718	203.291	185.897	127.615	139.513	189.949	205.974	138.828	158.855	157.026	134.880	142.154	156.521	120.026	97.000	75.173	47.051	156.239	186.759	192.675	193.120	178.368	257.521	232.513	205.838	286.009	254.316	275.248	101.273	88.114	92.789	76.806	99.206
2520020000	53.03	90.348	84.442	223.171	218.368	188.709	132.197	156.145	193.043	198.812	148.181	170.530	157.051	137.590	153.615	165.667	131.409	102.566	83.509	50.899	160.530	186.845	208.026	198.154	200.761	273.000	237.778	209.932	293.957	251.342	275.684	107.882	92.693	96.434	70.851	103.029
2520060000	53.03	86.339	86.000	215.675	214.043	190.735	126.308	159.368	194.333	206.214	144.371	163.316	158.060	133.940	150.564	157.419	129.383	105.673	87.845	56.030	163.342	187.172	212.564	190.393	198.607	265.564	239.393	207.188	287.111	252.598	280.991	109.855	85.754	94.763	72.791	106.196
2520100000	53.03	88.250	84.814	216.427	215.650	190.829	133.880	161.043	190.530	203.718	150.543	164.513	157.573	137.419	155.350	165.487	128.704	96.805	85.645	50.465	166.410	187.095	203.385	190.632	195.479	262.026	242.470	209.915	289.496	246.094	280.795	106.391	87.386	91.237	73.493	106.686
2520140000	53.03	87.670	81.743	224.598	214.846	187.632	127.983	153.872	194.829	208.692	153.466	168.727	154.368	139.128	159.393	158.803	131.096	101.522	89.173	46.182	159.897	186.526	207.513	195.017	198.162	265.744	233.786	212.000	286.735	250.966	274.718	109.309	84.895	90.776	77.269	106.990
2520180000	53.03	88.902	85.487	215.393	215.735	187.701	128.581	158.684	192.077	202.009	148.293	158.564	152.667	137.718	157.675	157.179	126.070	101.434	81.227	52.859	157.231	184.784	210.991	190.778	199.273	270.436	239.812	207.103	288.957	250.128	279.718	109.155	88.254	88.908	70.507	102.422
2550020000	53.36	93.911	85.000	235.000	221.744	191.974	121.632	176.094	195.838	208.188	160.862	173.778	161.197	146.932	159.504	170.248	141.748	109.301	91.500	53.394	162.983	200.690	206.932	198.692	195.718	270.727	239.026	209.171	308.872	253.342	293.701	114.127	95.044	101.013	87.567	117.471
2550060000	53.36	92.982	85.708	226.598	221.966	188.667	118.838	175.026	195.436	201.821	165.543	181.410	160.068	143.239	153.162	169.889	131.635	109.389	93.573	55.485	171.581	202.966	211.803	197.273	204.650	263.735	236.624	204.923	292.256	249.436	289.333	119.673	95.351	94.592	80.448	108.353
2550100000	53.36	99.911	84.159	239.974	222.829	189.111	122.821	175.829	200.624	201.573	158.172	166.684	167.974	144.991	160.701	173.188	133.035	107.726	84.500	51.737	167.855	192.190	207.547	187.590	198.171	270.556	245.436	205.120	301.709	253.932	291.077	119.336	98.193	97.526	84.761	115.127
2550140000	53.37	98.527	85.363	231.000	224.615	201.829	120.214	179.838	195.462	208.752	161.026	175.444	160.256	137.162	158.256	170.231	139.435	106.115	88.627	56.253	164.778	204.422	206.718	192.453	198.684	269.598	242.735	204.009	298.752	251.615	283.812	113.882	92.325	101.461	81.731	107.304
2550180000	53.37	99.080	87.027	223.821	218.231	191.658	120.359	170.803	197.701	200.256	159.336	173.718	153.427	143.923	160.034	170.222	139.043	108.805	85.173	56.141	168.675	203.586	210.769	198.282	200.658	268.821	242.906	200.333	296.239	255.222	292.778	116.773	98.623	99.605	84.179	112.000
2580020000	53.70	102.196	93.982	239.684	223.641	191.273	129.709	190.444	191.556	200.940	176.845	188.017	162.350	155.256	159.444	173.342	140.261	111.752	98.109	63.152	171.581	211.474	214.154	193.265	205.103	279.684	241.786	202.333	286.342	248.846	295.273	124.509	108.868	106.539	92.582	123.029
2580060000	53.70	108.804	98.496	238.581	219.761	196.205	122.573	183.342	198.513	204.128	168.836	178.504	163.410	154.641	154.103	176.026	144.009	120.133	97.836	57.131	167.974	209.293	204.410	193.667	204.282	272.111	238.701	198.068	294.744	252.205	297.273	123.945	106.158	102.500	85.597	128.941
2580100000	53.70	102.893	98.088	234.940	228.128	197.308	123.889	183.419	197.308	204.436	171.026	180.154	168.812	149.017	162.453	179.658	148.261	111.265	97.209	63.152	165.983	208.638	212.368	191.273	201.838	267.607	243.162	202.145	293.026	252.872	289.573	123.418	107.561	102.632	83.597	115.804
2580140000	53.70	104.705	94.929	237.658	229.932	199.154	127.333	180.795	198.291	203.188	174.552	183.838	165.162	150.462	158.470	171.538	142.774	118.150	95.745	58.000	162.590	212.078	209.085	198.487	202.821	272.162	237.205	203.778	288.752	252.385	292.487	126.573	108.360	109.329	93.373	125.441
2580180000	53.70	104.625	91.531	230.769	226.735	195.897	122.624	183.624	194.248	201.402	169.983	176.205	164.744	153.530	157.769	176.128	147.678	117.929	96.518	52.616	168.949	204.284	210.684	192.479	204.239	271.727	238.684	200.085	282.325	245.248	289.470	123.645	107.175	109.842	93.806	123.382
2610020000	54.04	109.393	111.327	237.846	231.009	195.872	128.795	193.675	196.786	207.590	179.086	187.128	169.906	162.051	160.333	179.479	151.652	125.345	105.955	68.071	175.154	216.500	212.701	190.778	201.188	280.983	234.368	195.940	285.128	254.453	302.889	138.382	108.342	109.842	94.299	143.559
2610060000	54.04	113.286	108.354	236.752	230.393	196.231	128.624	192.453	193.222	208.060	170.422	185.479	177.709	159.325	157.026	177.282	141.896	123.416	108.700	62.808	169.368	213.379	210.855	191.556	205.137	285.915	237.641	193.564	292.291	251.043	300.214	132.745	103.175	114.434	95.701	136.980
2610100000	54.04	112.232	102.434	236.803	222.538	201.701	125.538	192.197	196.368	202.291	174.698	187.684	167.419	163.308	165.838	177.342	147.383	120.903	105.182	67.798	176.137	212.612	210.940	191.932	198.077	279.598	234.265	197.889	286.103	252.735	294.060	137.327	104.202	99.934	104.791	137.333
2610140000	54.04	119.125	102.133	237.479	232.402	196.778	130.342	194.162	197.068	207.470	173.698	186.590	166.906	165.026	161.179	175.855	149.574	124.973	102.100	62.141	172.538	211.991	213.607	196.607	200.590	285.863	238.103	192.744	282.607	249.256	297.838	134.145	106.667	102.382	99.209	139.382
2610180000	54.04	113.688	104.743	245.359	226.248	203.256	138.273	193.197	194.265	206.265	181.319	192.299	172.752	160.598	167.043	180.214	147.861	124.027	103.573	65.758	173.521	215.310	204.991	191.359	201.026	285.778	236.162	190.120	293.359	250.821	297.778	130.673	102.667	102.803	93.090	135.814
2640020000	54.37	127.009	108.540	242.256	235.496	200.222	129.735	197.188	193.641	205.940	180.095	196.786	178.043	169.273	161.299	183.214	145.157	128.442	115.818	67.212	177.573	219.371	207.162	190.145	198.273	283.188	229.915	190.462	284.427	251.880	290.009	154.436	109.412	103.855	100.642	156.902
2640060000	54.38	126.804	109.345	232.179	233.308	201.846	132.342	198.547	198.761	203.692	182.897	193.846	177.154	169.581	169.120	180.829	150.783	123.292	123.264	69.697	178.376	211.112	210.487	187.906	202.846	283.239	232.120	192.863	290.325	247.949	288.359	151.345	111.754	104.658	97.940	149.637
2640100000	54.38	125.080	112.726	240.111	235.530	201.684	139.179	191.239	192.744	204.462	173.681	190.453	170.966	170.453	165.752	183.727	149.096	134.319	115.745	72.657	178.906	216.655	213.368	190.667	197.504	281.880	231.444	191.282	288.299	247.162	289.889	154.918	109.526	111.474	107.537	149.578
2640140000	54.38	121.009	111.035	234.855	235.906	201.521	132.496	191.957	202.761	193.444	175.707	196.077	180.590	168.496	170.120	181.641	151.487	129.973	119.509	70.859	178.325	214.457	207.769	193.128	200.128	277.026	231.615	188.094	281.769	245.017	286.026	144.127	106.851	106.434	98.015	149.490
2640180000	54.38	124.429	113.673	238.231	229.675	194.556	136.709	188.855	198.966	201.333	178.190	193.957	172.598	174.684	168.761	181.650	150.183	128.938	124.418	68.576	182.897	221.147	205.521	191.479	198.778	277.222	230.906	191.966	287.094	247.154	290.829	150.818	108.377	107.697	95.358	151.176
2670020000	54.71	134.393	117.593	234.368	225.444	194.419	134.684	194.530	197.068	203.265	181.578	196.393	194.111	190.154	179.316	183.906	146.365	134.504	124.445	71.707	185.171	219.138	199.846	187.265	194.137	285.940	230.957	191.017	281.034	239.128	292.513	169.891	117.026	108.750	110.209	167.078
2670060000	54.71	131.955	120.469	233.453	226.487	188.684	135.880	193.838	197.923	198.299	168.457	193.667	187.103	180.197	170.590	181.573	146.696	135.956	123.664	71.121	186.111	215.405	202.291	182.829	192.983	281.838	222.547	189.000	291.436	241.573	287.094	162.245	112.825	106.000	110.522	164.029
2670100000	54.71	130.866	121.195	228.282	221.932	189.667	130.521	194.530	191.855	191.769	177.422	191.581	186.496	187.137	174.350	175.855	151.478	133.611	132.709	70.889	181.171	213.034	200.188	187.051	198.863	274.120	226.154	180.436	287.966	237.709	289.000	167.745	117.588	107.118	116.313	156.833
2670140000	54.71	135.411	121.752	230.393	230.915	196.641	136.316	195.684	199.017	199.205	174.190	196.966	192.094	186.410	178.761	181.359	146.139	130.920	123.455	71.859	195.154	201.931	197.974	185.803	201.359	284.094	227.761	178.256	284.462	237.308	288.735	165.036	119.553	107.053	110.493	171.020
2670180000	54.71	132.804	120.867	239.530	222.453	194.145	139.821	194.752	200.256	196.291	176.405	195.043	188.128	191.573	184.470	177.154	147.183	135.451	123.655	72.515	184.060	210.733	198.094	184.350	202.162	284.598	230.342	189.068	282.949	238.991	290.197	169.845	115.175	106.974	114.448	166.706
2700020000	55.05	135.652	132.575	229.974	229.197	190.667	144.171	190.128	182.547	201.385	180.138	192.863	201.000	190.974	190.778	186.085	150.374	136.965	125.973	82.323	200.436	214.595	201.872	186.145	203.427	275.838	228.889	176.128	294.111	235.829	287.889	175.118	121.912	106.987	112.955	172.392
2700060000	55.05	143.500	130.469	233.453	233.316	194.051	143.128	191.009	188.752	200.607	172.914	184.103	202.547	196.436	186.761	175.581	145.470	138.159	125.345	76.212	201.171	216.784	196.855	176.453	206.000	279.641	225.222	172.350	291.632	236.145	286.231	171.455	122.430	110.566	106.925	170.559
2700100000	55.05	133.170	130.832	237.812	232.470	189.581	145.085	194.291	182.316	206.504	169.121	198.470	199.889	193.316	185.684	179.957	146.496	131.451	123.073	82.071	195.581	211.776	196.256	184.598	206.991	287.325	219.094	176.957	289.427	236.111	283.504	168.036	122.263	110.934	115.627	173.373
2700140000	55.05	140.696	131.956	236.325	233.624	187.521	144.684	191.829	180.889	199.060	168.767	187.863	198.085	190.667	191.333	173.974	146.557	127.080	123.827	78.162	195.957	220.112	198.051	179.205	210.248	284.744	226.034	174.419	290.188	236.684	286.829	174.400	118.272	107.118	106.791	163.863
2700180000	55.05	141.821	129.956	220.479	231.171	192.983	140.598	188.735	177.222	207.590	175.397	190.350	201.342	192.735	193.436	175.829	147.174	132.894	127.636	78.970	198.026	220.259	199.154	183.513	209.299	278.821	226.051	173.487	279.009	237.368	290.547	173.100	123.632	110.039	106.328	163.343
2730020000	55.37	143.277	144.097	233.889	226.043	186.402	146.479	193.795	177.752	194.769	167.000	189.778	224.111	201.325	199.282	180.863	145.548	136.699	129.873	78.606	203.983	212.440	199.821	179.966	206.205	281.658	227.966	171.530	279.068	232.051	289.120	181.373	125.360	114.250	122.164	176.882
2730060000	55.37	143.929	142.150	232.436	232.273	190.641	144.145	187.521	179.077	194.325	175.509	192.487	222.085	199.880	195.462	174.222	142.017	139.513	131.045	90.768	201.735	217.267	202.692	177.957	202.239	283.410	226.744	167.932	275.675	240.145	293.060	179.973	121.904	112.461	124.836	174.471
2730100000	55.37	150.554	143.000	234.752	223.581	188.068	140.915	193.419	177.880	195.769	167.733	191.915	222.761	199.248	197.308	175.376	145.383	135.283	132.327	89.061	207.769	206.991	196.256	183.889	204.017	280.556	228.479	163.795	278.889	230.632	286.829	181.009	121.114	114.329	119.955	173.343
2730140000	55.37	145.375	133.726	234.402	228.923	188.393	151.291	189.094	179.838	201.658	166.819	193.590	215.427	200.427	198.923	178.598	143.722	131.894	129.418	82.929	207.427	209.026	201.179	179.436	207.658	276.641	225.265	171.667	282.265	231.359	288.239	184.509	123.465	113.579	116.328	180.765
2730180000	55.37	150.054	146.699	225.273	225.504	188.060	146.034	193.795	178.470	199.470	173.379	188.385	222.017	191.291	191.675	178.957	148.374	138.363	131.500	82.455	202.171	209.724	199.231	175.368	205.368	281.991	229.154	168.410	284.803	235.427	285.889	183.527	119.237	117.592	119.313	178.637
2760020000	55.70	152.089	143.469	229.402	221.051	186.128	159.137	186.641	180.915	193.376	181.681	192.932	224.145	210.966	203.504	179.000	143.635	128.292	129.464	92.889	216.462	208.586	196.513	184.923	207.624	277.838	223.402	153.538	276.513	239.410	282.701	184.282	120.649	115.026	114.567	175.255
2760060000	55.70	152.295	147.442	223.333	221.060	179.752	156.137	189.308	189.479	190.556	177.638	194.009	222.897	211.812	204.983	178.778	149.452	127.027	128.809	79.202	217.265	214.948	196.068	179.137	203.214	280.991	217.752	154.812	269.709	229.538	282.530	182.691	126.386	113.579	115.269	173.186
2760100000	55.70	153.161	144.655	221.496	222.214	184.991	147.000	188.120	178.855	194.154	180.000	184.103	230.444	211.701	208.026	174.889	143.235	126.434	128.873	85.192	214.282	214.638	193.727	176.103	201.513	287.701	217.829	156.940	278.598	238.846	279.880	180.927	129.763	120.618	108.418	169.843
2760140000	55.70	147.482	150.788	225.111	225.350	180.974	160.402	184.248	179.521	189.769	175.991	190.932	225.863	210.496	201.991	181.248	143.591	128.133	123.082	92.606	215.368	218.871	196.487	178.179	198.966	282.701	216.761	154.761	277.855	231.299	276.479	177.891	124.140	108.000	115.985	175.000
2760180000	55.70	152.250	149.513	224.915	223.667	186.436	152.419	188.436	182.761	197.727	171.552	190.077	233.744	216.462	202.684	178.872	149.383	126.823	124.064	87.444	220.727	213.095	193.880	178.915	203.949	279.145	219.761	154.855	281.197	232.350	286.684	184.273	129.254	113.724	112.030	178.784
2790020000	56.03	153.357	152.389	223.632	220.761	178.256	157.513	188.949	180.427	198.444	170.595	191.974	235.393	210.897	215.145	178.231	146.991	134.106	132.309	89.465	220.897	208.293	191.111	181.786	199.667	279.615	221.265	142.547	271.803	225.718	280.641	194.127	124.351	110.789	104.746	179.735
2790060000	56.03	148.000	149.407	220.060	225.017	179.974	150.239	181.744	181.436	198.291	180.474	183.111	226.325	216.487	206.897	175.846	142.270	129.177	127.736	86.505	214.684	215.629	191.239	175.282	199.214	271.692	212.325	140.803	271.436	232.590	279.795	187.891	123.675	107.434	106.761	176.578
2790100000	56.03	152.625	155.929	213.675	223.137	176.068	157.786	181.265	177.496	195.692	174.483	183.547	227.778	212.667	214.103	178.923	150.452	125.496	125.773	97.111	218.393	202.914	189.111	180.034	198.607	272.795	213.829	144.188	271.923	226.701	279.821	190.455	125.281	118.961	110.463	178.441
2790140000	56.03	139.688	153.593	222.453	222.940	177.179	153.932	181.085	177.171	207.068	173.457	181.222	234.402	213.966	205.897	173.154	147.661	128.752	129.827	88.051	228.778	201.655	193.462	180.385	204.017	275.205	209.915	143.316	276.812	228.778	283.265	192.591	130.947	109.724	106.015	168.863
2790180000	56.03	144.009	151.735	218.179	218.966	175.427	162.410	184.162	172.906	197.940	173.983	183.991	230.521	216.889	204.889	175.786	149.504	129.080	130.255	83.949	217.427	209.026	193.556	175.991	195.940	274.812	211.658	145.949	276.248	229.214	278.265	181.609	122.921	118.408	106.687	172.127
2820020000	56.37	147.500	157.823	226.556	221.581	178.846	155.376	185.316	176.949	194.650	167.690	185.291	234.282	219.068	214.248	170.957	151.739	137.319	120.836	93.020	214.573	207.414	187.350	173.402	199.966	271.197	210.650	136.214	272.068	227.744	272.239	187.473	133.518	108.724	103.612	169.990
2820060000	56.37	147.062	150.186	220.521	219.154	175.667	149.709	182.436	172.547	189.034	172.000	181.017	228.496	213.256	212.735	173.658	147.252	132.752	122.555	99.424	221.120	206.164	190.624	171.692	201.282	274.299	211.744	124.889	265.137	226.444	273.949	184.400	135.184	108.895	106.030	168.833
2820100000	56.37	146.348	149.469	217.359	218.205	169.393	150.496	185.701	168.094	187.103	167.871	184.709	228.427	211.496	212.017	177.692	142.078	136.690	119.209	98.010	221.983	202.095	184.308	176.667	200.590	267.359	211.513	127.906	263.291	226.188	269.179	179.355	130.526	106.776	105.881	169.216
2820140000	56.37	152.286	152.221	215.154	219.085	177.821	154.154	183.017	174.214	189.590	174.871	179.786	234.983	209.863	214.573	176.735	143.913	134.133	127.418	93.404	227.179	205.974	191.684	170.744	200.282	271.051	213.590	129.453	264.068	221.547	271.470	182.827	125.807	99.842	102.597	170.314
2820180000	56.37	148.652	149.345	223.624	216.983	174.496	150.034	177.325	169.803	188.034	166.828	188.239	231.897	214.111	213.709	178.487	146.383	136.593	115.964	93.384	220.504	204.802	183.821	174.120	190.701	270.017	207.256	131.393	272.530	227.487	279.786	181.645	126.833	103.855	105.642	172.775
2850020000	56.70	146.330	150.389	211.188	215.077	177.573	152.359	197.239	169.684	192.684	164.681	176.316	233.718	203.188	221.906	170.564	145.957	115.425	118.327	98.646	225.385	201.853	180.538	165.812	182.821	264.094	200.427	118.359	265.060	227.350	280.786	178.936	129.333	99.724	104.448	167.147
2850060000	56.70	148.893	157.522	215.231	215.744	184.880	151.410	198.632	171.248	193.308	165.741	177.162	229.658	208.855	216.068	175.248	135.574	113.301	118.127	103.909	228.385	197.655	177.350	168.530	190.239	260.427	208.829	118.496	264.701	228.410	276.607	181.527	127.649	104.750	99.463	175.127
2850100000	56.70	146.929	153.735	218.906	215.197	177.718	152.778	193.829	172.752	192.009	165.931	173.137	232.248	213.513	213.350	173.889	138.878	120.965	120.273	106.111	225.624	199.414	180.316	165.718	195.120	262.923	205.752	118.564	265.111	217.855	275.744	179.291	134.526	107.921	108.015	170.471
2850140000	56.70	142.821	152.708	209.957	212.923	177.333	143.308	192.829	172.000	191.932	168.267	175.427	229.350	210.026	222.556	169.932	143.496	114.319	117.873	97.455	225.316	197.250	178.795	165.863	194.120	264.991	205.197	116.128	257.496	225.513	277.624	180.782	127.965	100.355	103.373	166.951
2850180000	56.71	143.750	155.363	218.137	215.880	182.641	143.812	191.991	169.273	193.487	166.328	176.803	225.068	211.778	216.530	175.333	145.643	119.204	113.555	97.414	226.470	197.724	175.718	172.598	188.402	267.564	202.624	116.179	261.667	221.735	271.197	182.791	128.404	101.408	112.701	174.657
2880020000	57.03	137.009	147.770	227.085	210.419	178.889	152.846	193.761	183.368	185.026	166.595	174.803	224.897	197.940	211.641	168.282	136.774	112.442	117.236	99.990	227.419	198.009	177.513	173.692	184.214	257.812	195.085	106.214	261.308	222.701	279.385	191.527	130.588	93.487	100.552	166.667
2880060000	57.03	139.089	152.779	222.778	212.453	175.034	149.650	184.727	185.043	190.291	166.448	172.923	218.026	202.538	211.632	170.026	140.617	116.655	119.091	102.596	221.342	209.250	171.795	170.821	186.188	257.641	190.453	105.786	258.650	220.171	270.906	185.909	138.588	93.263	102.537	169.853
2880100000	57.03	148.652	153.779	219.085	208.803	176.145	152.863	186.641	187.838	185.273	161.560	179.137	229.735	198.795	204.538	169.453	134.713	108.708	114.255	100.737	226.188	200.922	170.368	167.162	194.727	256.735	196.983	104.940	255.273	219.137	283.154	187.482	137.149	94.132	104.045	166.510
2880140000	57.03	136.893	150.195	220.385	211.581	175.154	156.291	183.675	184.171	186.709	166.767	177.068	228.752	199.034	214.043	173.607	134.443	114.469	118.609	97.687	225.607	204.603	181.453	169.188	190.624	252.590	195.889	108.521	263.385	216.000	275.761	185.500	132.728	93.684	104.881	167.853
2880180000	57.03	146.634	155.381	219.462	215.171	177.513	147.846	180.043	189.111	183.573	166.440	168.735	233.342	201.863	214.880	172.248	142.052	113.540	116.909	99.606	225.556	210.862	178.120	163.932	195.564	258.607	200.513	103.282	256.821	219.368	275.590	191.891	135.018	96.368	99.836	172.990
2910020000	57.36	137.116	152.257	216.000	207.573	175.735	146.855	182.795	180.667	183.769	158.284	168.094	225.974	181.308	197.111	172.564	135.296	115.885	116.855	108.222	218.120	204.767	171.051	165.068	182.077	259.410	178.598	90.316	263.350	215.530	272.889	187.682	154.132	91.553	94.269	161.686
2910060000	57.36	135.223	155.442	214.701	210.863	172.419	148.538	185.778	179.658	182.410	163.784	166.761	228.709	178.897	204.624	168.060	135.870	114.283	112.809	112.616	214.812	206.069	165.214	160.291	188.308	248.513	191.350	88.675	260.368	213.256	270.077	181.745	145.465	90.908	99.701	161.480
2910100000	57.36	140.161	145.053	216.803	207.051	174.974	151.291	181.256	177.889	183.325	156.276	166.273	222.838	178.752	191.410	165.607	129.504	111.549	117.582	100.646	212.282	202.612	164.188	160.966	184.308	254.111	190.957	90.641	251.795	212.145	274.291	187.082	155.667	95.566	93.657	159.392
2910140000	57.36	141.616	154.637	211.803	205.171	173.624	149.214	184.094	176.855	185.427	164.405	167.991	223.179	183.145	195.248	164.966	132.896	115.451	114.118	102.051	222.556	196.940	164.308	162.273	186.607	252.017	186.846	89.410	252.009	208.009	274.162	183.300	154.395	95.882	101.239	164.559
2910180000	57.36	138.411	151.372	212.932	208.385	171.333	156.128	177.179	178.598	179.658	164.466	164.410	229.462	182.957	198.863	172.410	134.122	117.310	115.936	98.424	214.393	207.138	165.675	160.915	187.368	247.427	188.786	88.214	253.581	213.256	273.615	182.318	150.237	94.105	98.537	162.588
2940020000	57.69	139.196	151.142	219.385	203.538	169.932	146.350	180.906	173.897	189.436	163.914	167.863	227.923	173.632	189.769	180.718	128.800	115.274	112.691	105.606	217.470	205.198	166.778	163.009	181.727	248.214	181.889	74.538	263.812	213.983	269.547	189.964	148.123	94.605	96.537	162.980
2940060000	57.69	133.045	150.000	222.966	199.667	168.188	152.222	175.496	173.658	182.077	162.534	164.085	217.470	172.111	184.812	179.077	125.591	119.646	115.455	102.556	222.350	202.293	164.675	164.538	181.197	251.068	175.273	70.256	261.718	207.376	265.547	182.500	149.693	89.553	98.433	156.373
2940100000	57.69	136.482	145.186	211.513	203.385	168.684	139.188	179.256	174.496	183.231	160.759	164.581	228.248	173.128	184.940	177.248	131.287	114.345	106.509	98.828	222.197	199.172	161.128	161.000	180.761	250.778	176.564	65.094	261.453	213.487	267.496	186.600	147.219	91.289	94.403	154.696
2940140000	57.70	133.786	149.602	209.350	206.821	170.265	146.991	183.581	173.111	184.641	167.336	159.940	225.128	169.846	189.521	179.368	127.791	115.124	110.927	98.020	219.889	204.362	168.744	149.188	184.188	250.026	183.419	67.453	259.145	218.222	263.872	178.136	152.088	89.447	97.239	158.029
2940180000	57.70	135.161	150.159	216.453	197.436	175.983	145.949	172.462	178.077	185.026	157.871	159.906	226.462	173.786	184.761	176.299	128.974	111.664	106.182	104.354	217.504	206.371	165.607	155.453	185.521	247.991	172.803	74.188	264.043	218.410	268.145	185.227	145.544	91.105	97.269	160.275
2970020000	58.03	135.652	150.106	218.427	206.051	169.846	141.085	166.727	189.162	195.273	172.647	156.795	213.991	172.615	181.197	176.504	126.243	113.876	122.100	104.879	215.598	212.491	163.299	149.273	180.137	249.273	171.573	55.436	260.436	203.273	259.248	181.782	154.272	92.368	96.672	152.225
2970060000	58.03	136.116	144.743	224.162	195.496	172.444	146.932	172.034	182.145	189.564	167.905	154.863	212.632	170.043	178.017	167.761	122.852	108.903	115.836	103.828	216.427	206.026	157.376	146.829	185.171	244.701	167.915	61.017	256.385	198.162	271.624	182.809	150.982	92.671	99.239	156.255
2970100000	58.03	134.688	148.080	219.444	201.812	175.222	145.453	170.051	179.197	186.291	173.293	164.880	207.077	174.923	186.658	179.855	132.270	110.345	114.227	98.232	218.504	202.414	160.145	151.718	180.359	245.675	166.393	57.752	258.291	203.906	273.034	184.973	162.763	97.303	100.448	153.363
2970140000	58.03	134.107	144.416	221.923	198.940	173.325	143.325	176.325	181.667	187.265	175.086	165.111	209.872	179.256	184.239	180.496	129.043	115.832	115.991	99.717	217.863	201.759	165.171	151.444	183.675	248.009	170.436	53.179	255.752	202.128	266.436	181.682	151.079	92.842	93.806	151.510
2970180000	58.03	139.920	151.469	213.273	205.709	164.607	141.940	179.923	171.444	185.615	173.190	163.675	212.812	178.855	192.521	180.983	126.974	111.265	119.691	104.586	215.308	202.647	160.060	155.316	181.521	248.889	164.983	59.855	255.923	204.273	267.376	177.782	150.816	92.368	91.791	151.333
3000020000	58.35	129.812	141.938	214.068	198.197	191.727	148.248	165.017	197.556	216.402	189.586	166.667	198.402	174.273	181.974	171.034	126.548	119.619	118.391	101.758	211.641	196.009	152.171	147.171	171.419	252.598	150.034	57.128	250.897	189.641	270.983	177.136	160.982	92.026	93.806	153.137
3000060000	58.35	131.714	144.717	213.838	190.624	191.795	146.248	166.709	201.889	214.513	186.534	172.222	204.231	178.419	182.077	173.906	127.043	117.035	116.091	107.212	212.359	193.802	147.855	148.299	174.333	251.650	147.786	57.803	247.513	193.556	265.368	178.436	155.246	89.500	94.149	151.990
3000100000	58.35	132.973	144.531	219.162	198.769	190.308	147.752	165.632	203.197	211.709	190.638	166.581	202.487	174.513	182.974	178.043	126.130	120.575	116.255	103.242	219.385	203.086	142.957	150.359	177.333	249.145	154.538	55.718	255.368	191.581	260.675	173.264	164.465	96.842	93.358	155.206
3000140000	58.35	129.438	141.416	211.889	199.872	186.701	147.299	169.573	199.342	213.051	179.741	166.684	200.060	171.855	187.171	167.145	130.174	120.168	118.664	102.061	216.222	198.422	150.325	148.889	179.769	253.111	155.547	56.214	249.368	189.504	264.812	175.027	157.851	87.079	94.134	148.284
3000180000	58.35	134.786	144.540	214.607	197.282	193.162	152.470	168.282	206.214	211.470	182.319	168.368	198.735	169.265	181.957	169.479	128.904	119.956	117.736	106.717	215.632	191.284	145.137	151.214	175.641	247.889	152.034	54.376	256.991	194.897	266.709	176.109	154.912	90.368	94.179	154.833
3030020000	58.70	121.848	150.911	208.342	192.291	176.145	143.470	162.299	260.325	294.188	224.784	168.222	192.462	221.521	193.530	168.308	127.557	122.752	114.136	106.566	209.436	199.060	142.017	142.863	172.590	246.727	141.145	63.829	248.598	185.701	260.265	177.936	187.333	90.224	117.851	153.667
3030060000	58.70	116.875	149.735	201.436	191.051	184.197	148.923	161.427	250.709	282.154	221.819	167.530	191.077	215.376	187.838	171.778	123.374	116.398	115.609	99.182	205.291	191.259	137.462	142.137	167.855	239.051	135.444	62.325	246.188	181.145	255.923	176.291	193.272	83.289	116.239	146.549
3030100000	58.70	115.911	149.239	200.607	194.658	183.590	148.282	170.658	255.060	289.564	221.724	164.521	194.812	216.983	184.675	167.350	122.017	123.460	113.191	101.253	205.675	195.672	134.701	140.077	168.214	242.162	129.393	67.205	251.470	192.154	262.385	166.173	184.789	85.474	113.045	149.824
3030140000	58.70	114.696	151.823	195.504	192.137	178.368	160.684	161.171	251.145	287.462	225.095	170.419	192.684	221.205	192.974	167.974	124.643	118.345	115.800	102.525	210.872	193.534	138.795	134.179	175.727	244.060	130.479	61.496	255.385	182.923	257.915	171.473	188.991	85.776	117.836	148.402
3030180000	58.70	114.723	150.681	200.453	195.239	178.598	157.043	166.085	254.521	287.077	226.440	174.009	195.872	219.017	189.564	166.650	125.713	120.805	115.291	103.899	201.632	198.388	138.966	136.803	169.214	247.333	141.718	61.632	246.068	182.017	255.299	172.273	184.781	95.224	116.925	146.520
3060020000	59.06	107.750	165.637	196.120	187.803	177.410	155.496	152.855	269.658	356.752	285.095	169.530	181.017	347.350	227.291	165.556	124.365	122.257	111.845	99.283	198.846	192.560	126.744	126.299	174.496	238.393	114.897	65.385	246.214	168.171	250.316	172.055	199.868	81.605	113.463	147.431
3060060000	59.06	108.929	163.779	189.855	187.949	175.658	156.051	158.128	266.556	351.111	288.138	166.368	179.727	350.624	234.479	162.222	120.922	116.301	118.445	101.323	199.427	197.569	128.282	129.564	172.137	240.009	121.598	66.479	246.778	175.145	252.291	165.691	198.991	83.645	110.164	149.294
3060100000	59.06	106.259	158.982	199.957	195.675	174.393	156.821	164.026	264.795	356.624	292.095	165.829	185.222	352.308	230.444	162.863	123.965	125.027	112.309	102.636	201.171	193.750	121.795	123.846	172.282	236.154	117.137	65.940	243.632	174.675	252.154	172.682	199.904	84.395	117.090	145.931
3060140000	59.06	102.205	167.867	204.325	190.949	170.897	151.632	154.889	267.889	348.043	286.983	167.641	182.855	347.342	224.581	164.650	125.122	114.876	119.409	100.919	204.419	190.474	131.239	129.043	168.564	239.385	120.530	68.915	253.162	177.273	251.615	175.118	193.719	82.618	107.463	150.931
3060180000	59.06	106.143	163.788	195.940	191.769	176.846	157.573	160.769	256.222	354.248	286.103	170.641	177.889	349.863	227.709	166.214	122.504	117.584	108.591	104.919	191.709	196.431	124.769	126.368	171.590	237.026	125.436	66.855	239.991	171.034	255.444	176.555	197.833	89.421	108.448	154.118
3090020000	59.37	106.116	162.549	196.855	193.316	183.085	168.769	167.077	265.607	369.915	332.603	186.043	173.667	425.000	292.487	168.966	120.826	125.416	118.964	99.525	218.709	187.534	113.393	117.487	172.333	224.154	106.735	68.077	242.256	160.684	245.889	174.691	222.737	111.882	110.552	145.951
3090060000	59.38	104.768	158.150	196.316	184.692	171.889	162.880	167.239	263.402	374.222	327.491	186.547	174.744	419.855	300.709	164.342	127.209	122.761	117.536	95.636	216.034	182.966	113.795	116.043	167.812	220.026	104.513	65.026	240.915	159.658	245.034	165.209	216.298	108.908	112.164	139.706
3090100000	59.38	110.312	159.841	197.376	189.513	171.932	168.701	162.504	262.111	373.701	339.034	183.872	173.154	416.684	291.966	166.949	118.000	121.425	114.636	99.293	213.863	181.621	117.342	112.333	173.359	220.444	105.470	63.795	244.932	162.915	243.735	164.727	223.202	107.171	107.642	141.824
3090140000	59.38	102.696	162.407	195.402	194.838	176.000	168.017	160.231	256.769	368.974	329.422	182.974	165.846	429.299	294.299	172.761	121.409	119.442	112.273	99.354	217.444	187.983	114.094	112.325	171.573	220.393	105.530	65.427	238.889	155.658	248.154	165.182	219.728	113.934	111.761	143.373
3090180000	59.38	103.250	154.407	191.308	188.940	167.675	161.949	161.889	266.171	366.598	333.690	192.103	170.940	420.709	295.060	169.171	116.435	119.770	116.982	97.707	211.718	185.966	117.735	111.872	169.795	222.368	106.650	62.564	242.256	158.077	250.094	166.973	225.623	110.697	105.284	143.422
3120020000	59.70	100.795	158.558	195.273	186.829	173.051	167.761	185.333	254.188	375.658	350.353	219.573	177.675	448.521	326.538	160.103	117.583	122.168	132.209	91.091	240.778	186.517	94.120	100.838	177.222	217.513	89.026	67.205	240.675	166.316	237.983	166.155	261.877	105.105	102.522	144.029
3120060000	59.70	99.536	154.850	187.940	185.530	167.188	169.034	182.111	252.906	382.009	350.267	219.957	174.991	445.325	321.573	167.650	116.365	123.912	124.327	97.091	239.479	192.810	97.333	102.171	183.068	214.761	89.607	74.009	242.103	159.444	240.906	160.945	257.237	110.408	109.657	145.520
3120100000	59.70	104.045	158.911	195.761	185.077	172.154	166.325	185.607	255.812	375.974	340.422	221.265	177.419	438.701	328.410	161.214	116.530	118.177	135.573	93.030	234.795	190.164	99.077	100.017	180.735	215.487	93.299	71.735	241.248	164.752	243.829	160.764	265.588	107.355	104.821	137.882
3120140000	59.70	96.241	157.549	191.855	184.487	167.727	173.103	184.137	253.410	374.974	339.931	213.607	171.496	443.538	327.974	167.060	115.609	121.177	133.236	96.040	241.197	196.526	103.538	99.530	181.974	212.744	93.530	76.803	240.744	164.880	240.727	163.373	254.518	107.671	109.985	143.951
3120180000	59.70	102.268	157.664	191.179	183.333	168.667	167.145	182.231	252.214	379.410	342.922	216.179	176.060	444.855	333.504	166.171	119.200	118.204	132.200	96.859	241.667	188.647	100.658	101.487	181.085	217.974	84.692	71.000	242.906	158.120	238.436	158.327	247.254	108.303	106.940	142.735
3150020000	60.03	110.884	158.522	191.051	195.812	168.803	162.256	237.342	244.590	366.846	349.328	237.017	193.564	444.359	336.444	167.111	123.513	121.602	162.736	92.778	312.846	190.578	85.855	94.205	189.521	212.521	80.726	78.949	247.308	167.615	240.325	168.073	284.842	118.395	105.522	136.735
3150060000	60.03	108.348	153.283	189.906	197.026	166.761	162.513	229.231	239.034	364.453	348.707	244.162	196.915	441.769	338.803	165.205	128.070	121.257	164.282	95.424	309.162	186.017	84.863	93.103	193.803	209.453	77.701	79.017	247.863	163.974	235.265	170.145	279.526	107.921	98.164	139.078
3150100000	60.03	112.536	158.832	183.829	192.744	171.675	155.897	242.239	244.376	371.359	342.483	234.111	196.863	445.846	336.282	166.444	121.739	121.407	162.227	92.071	316.453	191.241	84.145	87.376	193.829	213.949	80.880	83.402	249.684	162.530	229.727	169.173	279.974	109.605	107.030	141.461
3150140000	60.03	112.625	159.212	195.205	196.752	168.222	158.248	237.000	237.803	367.077	344.853	233.222	192.966	444.573	333.154	161.368	122.504	121.655	161.245	89.909	316.034	186.103	84.145	92.726	188.880	212.803	82.359	82.786	245.094	164.530	231.940	170.027	282.281	111.303	103.910	141.961
3150180000	60.03	112.580	154.593	188.538	196.701	167.291	151.214	232.821	237.325	365.128	348.914	233.957	196.120	440.453	326.863	167.786	125.809	123.522	159.864	97.192	307.573	184.793	79.009	90.410	186.812	210.111	78.444	73.462	238.154	160.675	231.162	173.500	277.684	114.487	100.269	138.637
3180020000	60.37	102.384	154.027	186.376	215.111	161.068	154.462	347.863	228.974	363.017	341.103	227.744	266.795	442.239	321.795	166.077	122.965	133.327	180.427	92.768	368.197	187.181	77.214	82.872	187.581	220.906	70.615	88.299	269.940	178.325	232.239	172.127	294.386	128.921	104.284	140.784
3180060000	60.37	105.652	151.752	179.128	212.786	162.795	148.051	345.333	224.359	356.966	344.103	232.709	260.513	430.085	323.291	166.889	128.991	135.336	186.036	91.242	370.957	179.810	78.231	79.410	189.419	213.761	70.675	89.179	269.350	173.350	226.846	167.055	294.430	128.500	102.119	135.882
3180100000	60.37	108.107	148.602	185.359	216.735	162.607	149.547	335.222	217.248	364.000	345.517	226.462	259.846	429.017	319.769	172.222	128.348	130.142	187.755	94.212	378.709	185.940	71.017	83.342	184.701	208.145	70.145	81.154	270.786	170.222	226.333	165.682	292.079	133.132	95.433	134.784
3180140000	60.37	116.071	148.478	192.521	208.239	165.051	149.530	330.923	217.692	354.273	342.155	231.333	261.590	436.282	313.385	170.043	119.739	127.752	182.709	92.727	367.863	178.241	71.786	84.009	188.479	211.188	76.983	82.778	269.316	179.333	221.205	166.982	291.439	124.737	94.015	133.294
3180180000	60.37	113.250	148.212	187.675	215.496	163.564	153.658	335.607	220.829	357.744	340.905	232.000	258.598	428.051	318.786	166.786	127.957	130.487	187.173	96.687	366.444	184.448	74.684	80.359	192.829	210.368	74.000	87.949	270.273	177.060	232.325	166.164	294.711	130.421	100.418	135.490
3210020000	60.71	111.286	148.035	190.744	232.701	167.872	154.675	390.906	218.590	361.350	373.397	232.615	356.419	433.530	310.222	209.017	137.539	159.796	193.318	93.535	387.547	177.724	65.778	75.299	194.932	216.932	68.162	92.709	289.675	198.060	224.872	159.527	305.798	142.539	97.687	133.147
3210060000	60.71	109.696	151.327	191.188	238.248	160.966	159.214	391.667	214.085	350.795	370.491	227.205	358.111	420.299	312.308	201.564	140.113	151.487	196.518	89.939	381.778	171.647	62.376	75.171	195.598	219.273	70.419	91.427	298.085	193.273	225.026	162.155	307.877	132.342	99.970	132.824
3210100000	60.71	114.384	146.673	188.419	234.103	165.855	157.188	393.342	217.709	358.675	377.784	225.615	350.427	429.778	311.915	208.769	132.200	156.186	195.009	95.768	383.667	174.707	61.684	70.761	201.444	223.368	73.256	90.590	290.974	193.769	225.889	169.236	313.544	144.224	103.388	132.608
3210140000	60.71	105.580	148.257	191.957	227.718	161.872	150.906	397.154	211.427	356.308	362.655	222.658	358.214	420.333	303.607	201.188	137.339	146.619	190.173	97.152	384.333	174.095	58.675	67.846	197.077	218.667	72.821	96.675	298.786	194.675	222.632	166.891	302.228	134.737	102.239	128.225
3210180000	60.71	109.277	147.000	184.803	233.727	164.393	147.496	393.906	211.103	353.590	367.647	221.906	357.915	426.359	311.641	202.145	138.104	155.434	197.573	96.929	385.094	173.983	61.120	75.000	199.376	220.504	75.957	89.419	294.487	195.128	227.863	161.700	304.325	141.118	98.985	137.794
3240020000	61.05	105.304	144.770	217.615	257.547	170.761	153.273	397.376	198.530	358.940	362.491	223.316	393.991	407.205	302.906	258.957	135.565	170.770	201.973	118.404	381.624	173.009	57.231	64.667	227.410	232.889	70.949	97.077	323.154	220.727	242.547	159.545	313.746	141.539	93.881	127.000
3240060000	61.05	105.116	153.097	212.060	253.538	167.761	150.051	401.154	200.333	354.607	360.905	226.641	390.556	398.496	302.966	261.103	135.296	168.947	198.255	116.667	383.111	170.552	57.060	63.462	224.162	246.214	78.504	102.034	321.991	215.188	236.573	162.764	315.061	141.421	96.552	130.275
3240100000	61.05	108.116	145.743	215.222	256.103	175.564	152.145	397.291	202.171	354.915	368.862	227.171	394.479	406.607	300.111	259.889	130.757	169.274	198.718	118.495	377.402	173.198	52.632	61.735	224.727	249.137	73.923	105.368	325.051	219.795	228.521	155.673	317.754	139.197	91.582	126.431
3240140000	61.05	111.125	148.858	212.308	256.667	173.009	157.291	394.556	204.786	360.607	355.431	222.291	392.556	401.111	297.897	259.487	131.191	171.911	195.227	112.051	377.026	174.259	53.564	64.607	224.393	245.863	78.624	100.915	320.949	216.530	231.393	162.282	314.526	141.184	89.985	129.265
3240180000	61.05	113.098	153.080	216.940	248.282	176.419	151.812	396.692	204.419	352.368	367.147	224.410	392.479	399.684	298.906	261.316	132.026	167.204	199.682	109.343	381.325	163.784	56.026	65.538	226.915	241.009	70.487	104.778	316.915	215.786	230.607	164.718	323.965	141.013	97.896	125.559
3270020000	61.38	112.402	148.301	243.350	246.162	201.145	135.530	410.410	196.590	385.889	343.983	213.436	439.923	397.718	286.410	264.786	148.130	179.354	216.364	108.242	371.735	168.733	51.333	58.359	275.718	263.940	77.205	108.744	340.658	239.786	259.709	163.300	304.596	130.803	84.851	125.667
3270060000	61.38	116.857	144.425	235.761	241.795	201.453	134.487	407.034	191.812	376.761	355.569	217.949	433.496	396.735	284.521	258.359	146.513	182.195	208.482	116.192	370.145	162.319	47.299	57.274	271.915	260.256	75.359	111.983	337.855	239.761	259.043	166.600	306.211	129.500	88.149	131.853
3270100000	61.38	115.286	143.283	246.761	240.521	201.470	135.393	407.197	195.043	382.239	351.940	218.769	436.915	392.128	256.026	260.273	145.887	179.283	209.273	109.697	373.880	166.638	50.889	61.778	275.556	263.427	69.017	117.239	339.316	236.265	260.496	162.718	303.325	132.737	98.045	134.725
3270140000	61.38	115.188	147.354	241.419	244.744	198.761	129.453	411.897	188.650	377.410	352.319	218.658	436.231	392.051	257.068	255.718	142.852	176.743	220.791	112.000	366.513	168.259	49.222	59.889	275.299	254.846	71.521	108.556	340.889	236.009	251.838	163.182	300.307	134.776	96.015	124.167
3270180000	61.38	116.554	144.513	237.735	243.667	200.359	133.632	403.060	192.376	382.342	357.284	214.538	440.838	396.162	253.863	257.179	139.643	187.177	215.373	113.414	370.915	168.931	51.530	53.436	274.479	266.769	77.735	110.462	343.231	237.085	261.419	159.118	303.430	133.039	95.493	133.373
3300020000	61.71	143.170	149.230	230.504	235.615	259.769	135.803	407.906	188.923	375.803	351.034	218.154	439.812	416.103	247.624	259.368	166.757	188.558	224.800	110.899	356.470	171.957	45.231	54.880	325.120	257.197	73.778	137.530	348.402	247.880	282.983	165.127	312.351	125.684	95.791	170.137
3300060000	61.71	142.098	157.089	233.000	235.897	259.547	129.547	407.744	179.231	374.974	351.828	211.453	436.017	407.615	248.145	253.915	160.687	192.823	216.227	106.030	360.530	165.405	49.855	59.991	319.897	256.727	67.821	135.248	341.701	253.607	279.120	167.364	303.482	128.605	92.567	170.657
3300100000	61.71	136.705	150.885	232.479	238.120	254.581	131.000	409.496	180.368	371.812	351.569	213.188	440.410	416.735	249.350	259.462	168.017	195.619	222.264	108.545	358.718	170.672	46.675	52.051	318.590	260.718	73.214	127.145	345.342	254.940	285.350	166.718	304.254	122.434	93.776	165.196
3300140000	61.71	135.661	147.009	229.043	237.000	260.872	131.154	405.991	180.966	371.684	350.431	214.359	452.342	407.359	243.778	257.060	170.522	192.566	224.100	110.081	357.162	169.974	41.521	51.709	321.179	259.239	72.026	136.897	349.949	251.932	281.530	164.082	307.456	125.250	91.791	168.186
3300180000	61.71	136.732	148.770	229.701	235.564	256.761	133.376	407.205	179.513	369.154	361.147	210.752	437.889	411.239	246.880	260.222	164.904	193.027	226.255	111.778	354.120	169.793	54.333	46.684	313.496	259.308	69.598	131.838	351.393	250.479	276.667	167.136	300.605	124.882	87.687	174.539
3330020000	62.04	184.304	156.159	220.949	239.829	265.402	149.009	411.564	180.051	376.410	349.500	206.239	430.667	402.368	240.308	248.991	184.687	202.982	225.936	122.313	344.709	182.060	42.829	51.239	340.479	256.581	76.009	167.197	354.838	257.368	314.487	176.918	305.167	133.118	113.060	201.245
3330060000	62.04	181.911	158.345	221.128	237.179	268.248	149.368	403.325	178.017	365.453	352.052	208.701	447.453	399.248	235.137	249.231	188.861	204.071	227.464	120.000	349.889	177.250	47.718	56.205	330.641	254.940	75.342	163.120	347.778	256.120	307.897	165.645	302.018	132.605	123.403	197.686
3330100000	62.04	178.062	165.690	228.479	231.803	269.667	147.530	407.103	177.573	364.590	347.129	206.179	440.128	404.436	237.265	250.496	181.557	198.062	227.364	122.515	347.650	181.112	43.923	48.410	336.205	249.547	67.145	159.077	350.368	254.436	312.940	166.418	300.202	137.566	114.403	198.853
3330140000	62.04	175.295	158.381	222.128	236.538	272.812	142.624	408.436	177.786	363.556	347.276	210.325	442.735	405.299	241.940	260.248	185.374	207.460	222.745	125.717	345.325	178.491	44.667	57.641	339.769	261.615	67.667	159.453	349.855	262.709	316.077	167.000	303.114	134.447	112.209	194.892
3330180000	62.04	175.723	160.540	220.598	236.983	269.120	145.513	402.863	175.282	365.017	349.457	199.145	444.709	401.923	231.128	246.650	189.643	203.619	230.891	124.545	346.017	181.767	46.359	55.547	338.667	255.453	69.308	158.009	352.034	249.034	306.308	173.464	302.851	141.066	117.985	196.892
3360020000	62.38	215.902	173.655	221.615	262.692	267.744	150.581	399.564	165.299	361.017	347.224	201.137	438.932	392.675	234.325	260.564	180.061	207.283	278.118	128.596	327.521	208.569	41.650	57.026	337.607	246.983	65.658	153.778	349.769	259.615	334.795	175.927	306.614	134.408	134.970	239.069
3360060000	62.38	218.036	179.257	216.940	252.291	265.453	147.949	395.581	162.556	358.068	339.319	202.513	427.368	393.513	226.812	257.444	179.635	204.150	271.636	124.758	328.479	206.534	41.154	52.068	330.444	248.701	67.556	156.821	341.598	252.846	334.769	178.136	304.579	129.645	123.701	239.059
3360100000	62.38	211.277	177.655	224.248	257.068	259.427	150.000	399.043	167.949	356.231	344.690	203.752	433.350	390.179	231.752	257.145	177.017	207.018	267.982	127.626	325.829	205.543	41.444	50.530	336.675	243.094	73.889	155.427	344.778	259.880	331.368	179.336	296.763	133.276	125.821	240.510
3360140000	62.38	218.134	183.071	220.880	249.607	259.410	144.504	396.453	166.974	360.034	343.741	204.256	425.222	385.188	229.667	247.889	182.061	208.558	263.491	124.626	319.829	199.888	40.393	54.188	341.410	251.974	68.897	153.111	350.316	250.385	333.855	172.618	304.447	131.592	118.761	238.539
3360180000	62.38	215.250	179.319	210.265	255.444	263.855	151.632	395.376	165.727	353.838	343.991	196.538	429.359	387.940	233.487	248.761	176.470	208.053	259.627	121.758	333.179	203.629	43.368	56.154	332.573	246.838	69.632	151.632	340.248	255.846	330.342	175.791	298.544	132.250	123.463	240.098
3390020000	62.72	243.696	196.177	217.026	265.316	248.718	158.376	400.547	159.453	363.017	343.078	200.829	437.564	376.137	228.906	248.154	174.287	224.938	271.600	132.192	318.496	215.129	43.299	50.718	346.855	241.009	67.051	161.197	343.744	255.282	342.051	203.082	307.211	134.237	145.075	285.765
3390060000	62.72	235.580	196.062	214.205	268.197	263.120	153.632	390.966	163.436	356.769	338.526	192.838	432.393	382.487	233.821	251.291	168.887	211.752	274.136	129.879	307.453	212.819	46.103	50.667	350.658	238.906	67.632	159.017	334.812	260.094	343.410	200.109	302.237	137.079	138.254	279.147
3390100000	62.72	242.250	200.398	208.564	274.017	255.547	151.855	402.248	162.966	357.923	345.216	204.051	428.829	381.538	223.923	250.821	171.626	212.752	276.100	133.465	315.265	219.991	43.598	51.368	347.581	245.957	68.444	156.650	345.111	252.675	337.855	203.473	301.316	134.868	135.149	277.039
3390140000	62.72	233.393	192.327	214.607	262.838	255.316	148.256	399.128	163.256	363.607	337.276	197.581	435.453	382.556	228.991	253.444	173.670	222.911	271.755	130.768	313.607	216.759	41.342	45.897	346.838	242.786	70.590	148.581	336.538	256.162	338.650	201.691	297.386	142.697	134.448	281.206
3390180000	62.72	240.321	199.973	215.111	263.026	256.325	155.479	400.564	162.000	360.009	335.233	193.829	425.744	389.658	232.812	253.316	170.487	216.478	269.455	133.040	316.094	219.034	40.821	48.111	340.051	248.436	65.624	157.145	341.957	250.769	340.154	205.445	304.386	140.105	140.701	286.980
3420020000	63.05	262.393	205.673	214.932	262.812	249.171	150.829	398.299	153.316	360.513	329.509	203.752	412.974	367.872	227.376	249.085	163.809	215.425	271.636	139.485	301.513	217.190	43.145	54.974	350.573	244.949	61.718	144.761	329.111	248.786	331.325	218.836	298.833	135.197	160.493	317.902
3420060000	63.05	261.348	210.142	207.256	263.111	254.650	156.462	399.983	150.171	358.658	330.690	204.812	409.709	361.727	228.068	244.991	162.157	218.407	271.255	138.222	303.026	209.138	39.632	54.487	345.094	242.940	62.530	146.846	335.641	248.436	337.624	224.118	294.623	139.066	167.582	316.853
3420100000	63.05	260.080	204.416	215.880	255.547	257.205	155.915	407.350	156.915	348.487	330.905	200.188	414.444	369.402	217.880	245.863	164.087	217.823	270.864	136.263	299.137	216.069	40.932	51.974	351.761	242.957	68.803	139.171	338.556	249.111	330.786	215.945	299.807	131.013	155.657	309.216
3420140000	63.05	260.554	204.761	221.214	257.897	246.752	152.419	408.803	153.496	356.880	334.164	198.051	415.231	365.154	223.162	250.068	164.983	218.186	268.936	137.131	301.547	222.776	43.829	58.009	353.949	245.684	64.991	141.974	339.846	246.701	329.496	215.355	301.219	137.355	158.343	310.461
3420180000	63.05	267.473	202.602	216.513	253.103	250.231	149.504	400.812	158.581	353.675	331.276	198.453	416.974	372.325	219.496	247.419	169.774	226.327	264.527	134.323	302.299	215.586	41.111	56.709	352.923	240.846	60.547	142.855	338.325	253.513	330.376	220.836	294.991	135.263	166.642	312.765
3450020000	63.38	280.062	260.770	205.701	243.496	248.410	153.017	398.470	144.966	355.060	332.078	198.727	416.026	353.487	222.068	250.897	154.791	216.628	268.627	137.424	296.624	223.026	45.282	52.556	353.795	246.299	66.769	127.111	332.051	249.632	331.598	257.773	246.667	130.592	181.746	324.069
3450060000	63.38	286.509	261.876	210.957	246.060	247.017	152.607	399.632	147.641	347.795	337.448	198.009	409.795	353.778	210.607	243.769	158.522	218.920	269.018	133.444	302.256	216.474	37.880	47.915	353.085	241.188	61.846	125.504	330.248	251.803	326.342	254.373	247.930	128.000	183.015	320.265
3450100000	63.38	279.152	251.805	207.179	243.496	257.727	155.812	399.333	150.308	352.778	333.647	201.188	418.342	358.906	212.650	241.282	155.922	220.566	264.409	140.172	300.444	224.776	41.325	48.479	359.735	241.393	69.487	128.034	331.632	248.162	320.103	259.855	240.123	127.487	176.254	324.892
3450140000	63.38	282.723	251.310	204.419	245.521	254.991	150.991	395.547	146.308	345.752	330.172	198.692	411.265	352.650	217.128	241.769	155.026	221.850	264.318	135.788	305.692	222.353	39.145	51.060	351.701	242.786	67.547	125.795	324.513	242.188	331.581	250.591	249.281	130.026	180.478	319.882
3450180000	63.38	283.911	253.496	209.043	240.273	255.538	153.436	395.727	154.051	361.231	332.940	195.094	413.966	358.778	218.120	239.949	147.617	227.566	262.473	137.818	298.419	219.836	37.872	44.812	359.436	246.120	60.718	123.615	332.991	249.957	331.530	257.373	245.035	130.395	177.537	324.020
3480020000	63.70	291.536	263.204	183.504	228.496	253.248	143.564	395.444	142.897	348.923	340.345	196.675	417.872	347.752	216.880	252.214	137.948	223.664	263.536	147.596	360.880	216.526	39.077	53.009	366.513	237.752	62.744	120.897	329.103	241.410	324.265	260.436	241.763	122.395	185.254	322.078
3480060000	63.70	292.036	267.867	183.427	230.043	245.350	142.154	394.350	137.350	345.402	334.000	192.863	413.060	345.231	211.359	247.684	137.704	231.310	264.200	144.515	364.513	215.276	45.214	45.085	361.231	232.641	64.667	123.137	328.573	235.350	326.940	267.645	238.833	127.566	191.507	321.255
3480100000	63.70	287.705	258.761	190.043	232.974	245.197	139.974	402.675	138.889	344.880	328.655	192.385	420.453	339.308	207.855	259.675	138.522	224.991	263.873	145.444	371.188	221.879	42.949	50.838	368.778	247.154	70.265	119.573	330.624	241.342	330.915	263.391	236.281	128.184	193.851	319.686
3480140000	63.70	295.795	265.106	189.607	231.316	246.829	143.880	393.615	136.453	343.701	323.845	192.957	424.333	340.752	214.308	248.197	133.904	220.982	265.382	141.970	366.692	213.078	39.427	49.966	362.744	241.761	58.974	123.718	327.641	236.846	320.709	260.091	236.395	128.026	186.925	319.725
3480180000	63.70	291.893	261.832	185.316	233.462	250.009	136.718	398.094	142.256	352.222	333.431	197.803	415.641	345.547	211.615	248.103	143.252	223.327	254.745	140.505	357.188	216.336	36.684	46.538	365.359	234.205	61.650	120.538	331.179	242.402	325.538	267.518	237.842	122.566	183.731	320.245
3510020000	64.02	292.286	266.239	167.103	211.538	252.077	144.547	399.120	166.342	343.111	333.500	194.205	398.667	336.009	218.632	239.923	125.087	223.867	264.245	144.343	357.128	208.388	38.795	49.803	366.385	241.479	58.060	106.171	336.325	184.974	340.068	258.318	238.035	123.079	184.731	315.029
3510060000	64.02	289.634	263.212	167.222	211.350	241.368	150.085	393.256	164.650	346.650	330.336	193.727	406.744	336.923	215.718	233.786	129.452	222.248	257.700	141.768	345.641	205.647	35.846	48.231	363.068	235.564	57.316	119.701	345.718	188.402	347.761	249.964	237.947	118.474	183.060	318.324
3510100000	64.03	294.027	268.310	168.786	212.325	246.462	146.077	389.291	160.829	348.436	333.388	197.547	400.291	336.427	219.983	240.675	125.470	220.434	254.927	142.636	347.735	215.336	40.222	47.769	362.949	232.325	59.376	111.333	336.214	189.624	336.291	253.727	237.579	121.816	180.313	317.098
3510140000	64.03	289.339	265.832	169.034	204.795	247.530	144.632	393.085	164.556	353.094	335.095	193.094	401.556	331.915	212.214	231.752	124.174	221.982	262.973	143.404	353.427	210.793	36.838	47.393	365.017	242.701	60.658	121.453	341.427	188.632	339.342	259.073	241.263	128.250	180.000	313.422
3510180000	64.03	289.491	263.885	170.017	209.385	249.162	149.419	387.812	162.821	350.162	326.276	185.821	400.462	336.214	216.188	236.786	121.635	219.903	253.609	149.495	347.077	208.612	39.752	49.436	361.487	240.077	58.624	115.256	339.538	190.376	343.111	255.382	240.395	127.276	179.896	313.363
3540020000	64.35	300.268	279.372	189.068	193.615	238.504	144.017	397.675	145.863	352.231	329.810	190.675	389.231	325.846	213.026	214.402	113.209	222.796	256.109	147.081	360.026	216.957	41.009	44.513	368.103	267.085	56.607	125.812	372.949	185.359	340.453	251.409	237.456	116.618	177.075	315.755
3540060000	64.35	303.830	275.071	187.205	192.538	236.521	143.880	392.624	147.085	341.009	326.121	190.060	391.410	330.009	216.179	218.205	113.557	220.965	255.582	153.515	354.222	211.621	39.470	48.846	371.453	265.889	60.590	114.470	366.581	180.650	344.111	255.745	232.719	126.513	175.806	302.755
3540100000	64.35	305.134	273.434	188.906	200.145	229.573	145.581	394.299	137.581	346.043	326.302	190.316	383.974	335.350	211.949	213.727	115.322	220.089	258.755	148.081	353.273	206.690	38.376	54.051	364.376	258.530	59.872	113.128	366.427	180.915	336.641	256.218	231.711	121.079	179.119	302.912
3540140000	64.35	301.188	274.248	190.009	199.769	231.940	143.641	398.829	139.000	337.889	324.552	183.658	390.598	326.368	210.821	217.974	112.922	215.956	254.691	151.242	350.573	214.603	41.923	48.615	362.060	266.701	60.120	120.923	363.291	180.684	339.214	247.009	233.658	124.145	178.970	310.843
3540180000	64.35	304.009	272.814	183.179	198.436	235.855	142.701	392.684	139.171	347.496	326.474	187.179	392.735	325.248	219.000	213.829	107.617	213.336	256.282	146.081	351.735	211.983	39.632	50.299	367.248	266.017	57.581	115.991	362.316	182.932	342.214	248.200	229.640	121.697	171.000	312.912
3570020000	64.67	271.616	279.035	173.667	178.889	222.291	155.718	389.368	142.957	343.085	319.784	180.709	374.350	315.530	210.991	184.034	125.313	224.823	249.827	140.990	300.658	208.784	41.462	49.085	369.350	270.590	61.829	120.641	365.786	175.068	343.821	248.409	224.044	122.934	168.254	302.353
3570060000	64.67	270.830	274.106	171.590	179.872	222.171	151.547	385.462	136.316	335.675	321.017	185.034	367.504	310.598	204.333	180.940	124.809	217.584	249.373	142.596	298.598	205.638	41.068	49.812	359.256	269.966	62.274	110.419	355.239	175.043	337.068	255.145	221.254	119.711	163.328	304.598
3570100000	64.67	277.821	280.434	168.077	177.897	220.727	158.376	389.026	142.436	340.667	320.457	182.444	377.077	312.009	204.197	183.470	122.348	214.566	254.609	145.535	294.897	212.629	41.479	48.761	365.068	268.265	55.120	115.590	359.949	170.778	336.479	249.655	225.842	121.132	174.985	307.510
3570140000	64.67	268.804	276.106	174.350	180.043	222.060	157.205	388.573	133.735	338.179	326.698	177.581	374.906	315.957	208.598	192.248	120.000	222.159	253.936	145.636	290.453	215.767	39.043	48.991	364.376	268.222	59.795	117.068	363.983	172.761	341.462	242.300	228.263	119.987	171.687	304.980
3570180000	64.67	266.054	277.142	176.385	182.462	218.171	154.051	381.744	139.009	335.342	321.612	182.658	371.359	313.393	203.333	183.658	120.026	213.434	252.464	143.303	294.444	213.871	48.179	46.667	364.598	268.504	57.974	116.333	362.137	172.632	333.915	245.945	223.939	117.421	163.985	313.892
